,Time:512Hz,Epoch,Electrode,Event Id
1024,2.0,32,-125.0,0.0
1025,2.001953125,32,-91.0,0.0
1026,2.00390625,32,-55.0,0.0
1027,2.005859375,32,-37.0,0.0
1028,2.0078125,32,-29.0,0.0
1029,2.009765625,32,-35.0,0.0
1030,2.01171875,32,-41.0,0.0
1031,2.013671875,32,-38.0,0.0
1032,2.015625,32,-26.0,0.0
1033,2.017578125,32,-2.0,0.0
1034,2.01953125,32,19.0,0.0
1035,2.021484375,32,28.0,0.0
1036,2.0234375,32,36.0,0.0
1037,2.025390625,32,33.0,0.0
1038,2.02734375,32,28.0,0.0
1039,2.029296875,32,39.0,0.0
1040,2.03125,32,59.0,0.0
1041,2.033203125,32,77.0,0.0
1042,2.03515625,32,71.0,0.0
1043,2.037109375,32,53.0,0.0
1044,2.0390625,32,43.0,0.0
1045,2.041015625,32,40.0,0.0
1046,2.04296875,32,51.0,0.0
1047,2.044921875,32,68.0,0.0
1048,2.046875,32,64.0,0.0
1049,2.048828125,32,44.0,0.0
1050,2.05078125,32,40.0,0.0
1051,2.052734375,32,55.0,0.0
1052,2.0546875,32,72.0,0.0
1053,2.056640625,32,87.0,0.0
1054,2.05859375,32,86.0,0.0
1055,2.060546875,32,69.0,0.0
1056,2.0625,33,59.0,0.0
1057,2.064453125,33,77.0,0.0
1058,2.06640625,33,100.0,0.0
1059,2.068359375,33,99.0,0.0
1060,2.0703125,33,87.0,0.0
1061,2.072265625,33,66.0,0.0
1062,2.07421875,33,56.0,0.0
1063,2.076171875,33,69.0,0.0
1064,2.078125,33,75.0,0.0
1065,2.080078125,33,76.0,0.0
1066,2.08203125,33,73.0,0.0
1067,2.083984375,33,74.0,0.0
1068,2.0859375,33,72.0,0.0
1069,2.087890625,33,70.0,0.0
1070,2.08984375,33,88.0,0.0
1071,2.091796875,33,112.0,0.0
1072,2.09375,33,118.0,0.0
1073,2.095703125,33,116.0,0.0
1074,2.09765625,33,113.0,0.0
1075,2.099609375,33,115.0,0.0
1076,2.1015625,33,105.0,0.0
1077,2.103515625,33,90.0,0.0
1078,2.10546875,33,101.0,0.0
1079,2.107421875,33,113.0,0.0
1080,2.109375,33,109.0,0.0
1081,2.111328125,33,104.0,0.0
1082,2.11328125,33,118.0,0.0
1083,2.115234375,33,151.0,0.0
1084,2.1171875,33,156.0,0.0
1085,2.119140625,33,146.0,0.0
1086,2.12109375,33,135.0,0.0
1087,2.123046875,33,103.0,0.0
1088,2.125,34,70.0,0.0
1089,2.126953125,34,91.0,0.0
1090,2.12890625,34,134.0,0.0
1091,2.130859375,34,157.0,0.0
1092,2.1328125,34,170.0,0.0
1093,2.134765625,34,184.0,0.0
1094,2.13671875,34,184.0,0.0
1095,2.138671875,34,161.0,0.0
1096,2.140625,34,144.0,0.0
1097,2.142578125,34,153.0,0.0
1098,2.14453125,34,160.0,0.0
1099,2.146484375,34,135.0,0.0
1100,2.1484375,34,96.0,0.0
1101,2.150390625,34,80.0,0.0
1102,2.15234375,34,85.0,0.0
1103,2.154296875,34,103.0,0.0
1104,2.15625,34,109.0,0.0
1105,2.158203125,34,97.0,0.0
1106,2.16015625,34,91.0,0.0
1107,2.162109375,34,106.0,0.0
1108,2.1640625,34,115.0,0.0
1109,2.166015625,34,90.0,0.0
1110,2.16796875,34,73.0,0.0
1111,2.169921875,34,75.0,0.0
1112,2.171875,34,76.0,0.0
1113,2.173828125,34,80.0,0.0
1114,2.17578125,34,91.0,0.0
1115,2.177734375,34,101.0,0.0
1116,2.1796875,34,85.0,0.0
1117,2.181640625,34,55.0,0.0
1118,2.18359375,34,39.0,0.0
1119,2.185546875,34,45.0,0.0
1120,2.1875,35,60.0,0.0
1121,2.189453125,35,56.0,0.0
1122,2.19140625,35,38.0,0.0
1123,2.193359375,35,32.0,0.0
1124,2.1953125,35,42.0,0.0
1125,2.197265625,35,59.0,0.0
1126,2.19921875,35,58.0,0.0
1127,2.201171875,35,42.0,0.0
1128,2.203125,35,13.0,0.0
1129,2.205078125,35,17.0,0.0
1130,2.20703125,35,49.0,0.0
1131,2.208984375,35,73.0,0.0
1132,2.2109375,35,75.0,0.0
1133,2.212890625,35,76.0,0.0
1134,2.21484375,35,89.0,33553.0
1135,2.216796875,35,89.0,0.0
1136,2.21875,35,89.0,0.0
1137,2.220703125,35,89.0,33554.0
1138,2.22265625,35,96.0,0.0
1139,2.224609375,35,96.0,0.0
1140,2.2265625,35,105.0,0.0
1141,2.228515625,35,114.0,0.0
1142,2.23046875,35,121.0,0.0
1143,2.232421875,35,121.0,0.0
1144,2.234375,35,112.0,0.0
1145,2.236328125,35,112.0,0.0
1146,2.23828125,35,114.0,0.0
1147,2.240234375,35,108.0,0.0
1148,2.2421875,35,103.0,0.0
1149,2.244140625,35,90.0,0.0
1150,2.24609375,35,69.0,0.0
1151,2.248046875,35,61.0,0.0
1152,2.25,36,71.0,0.0
1153,2.251953125,36,90.0,0.0
1154,2.25390625,36,117.0,0.0
1155,2.255859375,36,128.0,0.0
1156,2.2578125,36,102.0,0.0
1157,2.259765625,36,76.0,0.0
1158,2.26171875,36,68.0,0.0
1159,2.263671875,36,54.0,0.0
1160,2.265625,36,53.0,0.0
1161,2.267578125,36,72.0,0.0
1162,2.26953125,36,84.0,0.0
1163,2.271484375,36,84.0,0.0
1164,2.2734375,36,84.0,0.0
1165,2.275390625,36,89.0,0.0
1166,2.27734375,36,115.0,0.0
1167,2.279296875,36,128.0,0.0
1168,2.28125,36,101.0,0.0
1169,2.283203125,36,87.0,33553.0
1170,2.28515625,36,87.0,0.0
1171,2.287109375,36,87.0,0.0
1172,2.2890625,36,87.0,33554.0
1173,2.291015625,36,96.0,0.0
1174,2.29296875,36,102.0,0.0
1175,2.294921875,36,123.0,0.0
1176,2.296875,36,137.0,0.0
1177,2.298828125,36,135.0,0.0
1178,2.30078125,36,123.0,0.0
1179,2.302734375,36,101.0,0.0
1180,2.3046875,36,64.0,0.0
1181,2.306640625,36,43.0,0.0
1182,2.30859375,36,54.0,0.0
1183,2.310546875,36,69.0,0.0
1184,2.3125,37,70.0,0.0
1185,2.314453125,37,57.0,0.0
1186,2.31640625,37,51.0,0.0
1187,2.318359375,37,60.0,0.0
1188,2.3203125,37,71.0,0.0
1189,2.322265625,37,76.0,0.0
1190,2.32421875,37,80.0,0.0
1191,2.326171875,37,68.0,0.0
1192,2.328125,37,57.0,0.0
1193,2.330078125,37,58.0,0.0
1194,2.33203125,37,69.0,0.0
1195,2.333984375,37,87.0,0.0
1196,2.3359375,37,108.0,0.0
1197,2.337890625,37,118.0,0.0
1198,2.33984375,37,117.0,0.0
1199,2.341796875,37,112.0,0.0
1200,2.34375,37,115.0,0.0
1201,2.345703125,37,116.0,0.0
1202,2.34765625,37,115.0,0.0
1203,2.349609375,37,100.0,0.0
1204,2.3515625,37,92.0,0.0
1205,2.353515625,37,80.0,0.0
1206,2.35546875,37,57.0,0.0
1207,2.357421875,37,42.0,0.0
1208,2.359375,37,55.0,0.0
1209,2.361328125,37,52.0,0.0
1210,2.36328125,37,35.0,0.0
1211,2.365234375,37,40.0,0.0
1212,2.3671875,37,45.0,0.0
1213,2.369140625,37,52.0,0.0
1214,2.37109375,37,38.0,0.0
1215,2.373046875,37,18.0,0.0
1216,2.375,38,11.0,0.0
1217,2.376953125,38,13.0,0.0
1218,2.37890625,38,37.0,0.0
1219,2.380859375,38,56.0,0.0
1220,2.3828125,38,36.0,0.0
1221,2.384765625,38,6.0,0.0
1222,2.38671875,38,-23.0,0.0
1223,2.388671875,38,-33.0,0.0
1224,2.390625,38,-24.0,0.0
1225,2.392578125,38,-25.0,0.0
1226,2.39453125,38,-23.0,0.0
1227,2.396484375,38,-11.0,0.0
1228,2.3984375,38,34.0,0.0
1229,2.400390625,38,86.0,0.0
1230,2.40234375,38,73.0,0.0
1231,2.404296875,38,72.0,0.0
1232,2.40625,38,92.0,0.0
1233,2.408203125,38,100.0,0.0
1234,2.41015625,38,90.0,0.0
1235,2.412109375,38,75.0,0.0
1236,2.4140625,38,58.0,0.0
1237,2.416015625,38,35.0,0.0
1238,2.41796875,38,41.0,0.0
1239,2.419921875,38,72.0,0.0
1240,2.421875,38,51.0,0.0
1241,2.423828125,38,19.0,0.0
1242,2.42578125,38,16.0,0.0
1243,2.427734375,38,36.0,0.0
1244,2.4296875,38,72.0,0.0
1245,2.431640625,38,123.0,0.0
1246,2.43359375,38,163.0,0.0
1247,2.435546875,38,132.0,0.0
1248,2.4375,39,97.0,0.0
1249,2.439453125,39,97.0,0.0
1250,2.44140625,39,155.0,0.0
1251,2.443359375,39,214.0,0.0
1252,2.4453125,39,210.0,0.0
1253,2.447265625,39,201.0,0.0
1254,2.44921875,39,193.0,0.0
1255,2.451171875,39,196.0,0.0
1256,2.453125,39,233.0,0.0
1257,2.455078125,39,214.0,0.0
1258,2.45703125,39,140.0,0.0
1259,2.458984375,39,103.0,0.0
1260,2.4609375,39,96.0,0.0
1261,2.462890625,39,97.0,0.0
1262,2.46484375,39,86.0,0.0
1263,2.466796875,39,112.0,0.0
1264,2.46875,39,192.0,0.0
1265,2.470703125,39,258.0,0.0
1266,2.47265625,39,266.0,0.0
1267,2.474609375,39,243.0,0.0
1268,2.4765625,39,202.0,33553.0
1269,2.478515625,39,202.0,33554.0
1270,2.48046875,39,163.0,0.0
1271,2.482421875,39,156.0,0.0
1272,2.484375,39,168.0,0.0
1273,2.486328125,39,160.0,0.0
1274,2.48828125,39,146.0,0.0
1275,2.490234375,39,153.0,0.0
1276,2.4921875,39,182.0,0.0
1277,2.494140625,39,208.0,0.0
1278,2.49609375,39,196.0,0.0
1279,2.498046875,39,199.0,0.0
1280,2.5,40,227.0,0.0
1281,2.501953125,40,164.0,0.0
1282,2.50390625,40,64.0,0.0
1283,2.505859375,40,21.0,0.0
1284,2.5078125,40,13.0,0.0
1285,2.509765625,40,52.0,0.0
1286,2.51171875,40,107.0,0.0
1287,2.513671875,40,123.0,0.0
1288,2.515625,40,113.0,0.0
1289,2.517578125,40,104.0,0.0
1290,2.51953125,40,115.0,0.0
1291,2.521484375,40,129.0,0.0
1292,2.5234375,40,134.0,0.0
1293,2.525390625,40,119.0,0.0
1294,2.52734375,40,83.0,0.0
1295,2.529296875,40,44.0,0.0
1296,2.53125,40,21.0,0.0
1297,2.533203125,40,-5.0,0.0
1298,2.53515625,40,-38.0,0.0
1299,2.537109375,40,-39.0,0.0
1300,2.5390625,40,-6.0,0.0
1301,2.541015625,40,2.0,33553.0
1302,2.54296875,40,2.0,33554.0
1303,2.544921875,40,-14.0,0.0
1304,2.546875,40,-22.0,0.0
1305,2.548828125,40,-19.0,0.0
1306,2.55078125,40,-1.0,0.0
1307,2.552734375,40,-58.0,0.0
1308,2.5546875,40,-150.0,0.0
1309,2.556640625,40,-145.0,0.0
1310,2.55859375,40,-83.0,0.0
1311,2.560546875,40,-53.0,0.0
1312,2.5625,41,-40.0,0.0
1313,2.564453125,41,-18.0,0.0
1314,2.56640625,41,-22.0,0.0
1315,2.568359375,41,-49.0,0.0
1316,2.5703125,41,-44.0,0.0
1317,2.572265625,41,-39.0,0.0
1318,2.57421875,41,-57.0,0.0
1319,2.576171875,41,-102.0,0.0
1320,2.578125,41,-122.0,0.0
1321,2.580078125,41,-113.0,0.0
1322,2.58203125,41,-108.0,0.0
1323,2.583984375,41,-108.0,0.0
1324,2.5859375,41,-124.0,0.0
1325,2.587890625,41,-138.0,0.0
1326,2.58984375,41,-125.0,0.0
1327,2.591796875,41,-129.0,0.0
1328,2.59375,41,-132.0,0.0
1329,2.595703125,41,-105.0,0.0
1330,2.59765625,41,-116.0,0.0
1331,2.599609375,41,-121.0,0.0
1332,2.6015625,41,-92.0,0.0
1333,2.603515625,41,-70.0,0.0
1334,2.60546875,41,-67.0,0.0
1335,2.607421875,41,-58.0,0.0
1336,2.609375,41,-73.0,0.0
1337,2.611328125,41,-92.0,0.0
1338,2.61328125,41,-71.0,0.0
1339,2.615234375,41,-49.0,0.0
1340,2.6171875,41,-65.0,0.0
1341,2.619140625,41,-60.0,0.0
1342,2.62109375,41,-29.0,0.0
1343,2.623046875,41,-39.0,0.0
1344,2.625,42,-53.0,0.0
1345,2.626953125,42,-41.0,0.0
1346,2.62890625,42,-42.0,0.0
1347,2.630859375,42,-66.0,0.0
1348,2.6328125,42,-92.0,0.0
1349,2.634765625,42,-126.0,0.0
1350,2.63671875,42,-115.0,0.0
1351,2.638671875,42,-41.0,0.0
1352,2.640625,42,8.0,0.0
1353,2.642578125,42,13.0,0.0
1354,2.64453125,42,12.0,0.0
1355,2.646484375,42,25.0,0.0
1356,2.6484375,42,26.0,0.0
1357,2.650390625,42,9.0,0.0
1358,2.65234375,42,12.0,0.0
1359,2.654296875,42,26.0,0.0
1360,2.65625,42,33.0,0.0
1361,2.658203125,42,41.0,0.0
1362,2.66015625,42,74.0,0.0
1363,2.662109375,42,59.0,0.0
1364,2.6640625,42,23.0,0.0
1365,2.666015625,42,57.0,0.0
1366,2.66796875,42,99.0,0.0
1367,2.669921875,42,112.0,0.0
1368,2.671875,42,58.0,0.0
1369,2.673828125,42,-17.0,0.0
1370,2.67578125,42,-37.0,0.0
1371,2.677734375,42,8.0,0.0
1372,2.6796875,42,34.0,0.0
1373,2.681640625,42,8.0,0.0
1374,2.68359375,42,-28.0,0.0
1375,2.685546875,42,-54.0,0.0
1376,2.6875,43,-35.0,0.0
1377,2.689453125,43,-12.0,0.0
1378,2.69140625,43,6.0,0.0
1379,2.693359375,43,0.0,0.0
1380,2.6953125,43,-29.0,0.0
1381,2.697265625,43,-50.0,0.0
1382,2.69921875,43,-49.0,0.0
1383,2.701171875,43,-3.0,0.0
1384,2.703125,43,29.0,0.0
1385,2.705078125,43,38.0,0.0
1386,2.70703125,43,25.0,0.0
1387,2.708984375,43,12.0,0.0
1388,2.7109375,43,13.0,0.0
1389,2.712890625,43,-4.0,0.0
1390,2.71484375,43,-21.0,0.0
1391,2.716796875,43,-18.0,0.0
1392,2.71875,43,-27.0,0.0
1393,2.720703125,43,-27.0,0.0
1394,2.72265625,43,-18.0,0.0
1395,2.724609375,43,-24.0,0.0
1396,2.7265625,43,-8.0,0.0
1397,2.728515625,43,39.0,0.0
1398,2.73046875,43,76.0,0.0
1399,2.732421875,43,49.0,0.0
1400,2.734375,43,19.0,0.0
1401,2.736328125,43,5.0,0.0
1402,2.73828125,43,3.0,0.0
1403,2.740234375,43,-6.0,0.0
1404,2.7421875,43,2.0,0.0
1405,2.744140625,43,28.0,0.0
1406,2.74609375,43,43.0,0.0
1407,2.748046875,43,50.0,0.0
1408,2.75,44,44.0,0.0
1409,2.751953125,44,48.0,0.0
1410,2.75390625,44,50.0,0.0
1411,2.755859375,44,41.0,0.0
1412,2.7578125,44,38.0,0.0
1413,2.759765625,44,52.0,0.0
1414,2.76171875,44,73.0,0.0
1415,2.763671875,44,91.0,0.0
1416,2.765625,44,89.0,0.0
1417,2.767578125,44,67.0,0.0
1418,2.76953125,44,55.0,0.0
1419,2.771484375,44,53.0,0.0
1420,2.7734375,44,39.0,0.0
1421,2.775390625,44,36.0,0.0
1422,2.77734375,44,32.0,0.0
1423,2.779296875,44,45.0,0.0
1424,2.78125,44,60.0,0.0
1425,2.783203125,44,52.0,0.0
1426,2.78515625,44,37.0,0.0
1427,2.787109375,44,52.0,0.0
1428,2.7890625,44,80.0,0.0
1429,2.791015625,44,82.0,0.0
1430,2.79296875,44,69.0,0.0
1431,2.794921875,44,54.0,0.0
1432,2.796875,44,27.0,0.0
1433,2.798828125,44,9.0,0.0
1434,2.80078125,44,24.0,0.0
1435,2.802734375,44,40.0,0.0
1436,2.8046875,44,44.0,0.0
1437,2.806640625,44,52.0,0.0
1438,2.80859375,44,44.0,0.0
1439,2.810546875,44,38.0,0.0
1440,2.8125,45,51.0,0.0
1441,2.814453125,45,50.0,0.0
1442,2.81640625,45,38.0,0.0
1443,2.818359375,45,36.0,0.0
1444,2.8203125,45,52.0,0.0
1445,2.822265625,45,67.0,0.0
1446,2.82421875,45,60.0,0.0
1447,2.826171875,45,48.0,0.0
1448,2.828125,45,27.0,0.0
1449,2.830078125,45,24.0,0.0
1450,2.83203125,45,25.0,0.0
1451,2.833984375,45,10.0,0.0
1452,2.8359375,45,4.0,0.0
1453,2.837890625,45,25.0,0.0
1454,2.83984375,45,38.0,0.0
1455,2.841796875,45,32.0,0.0
1456,2.84375,45,24.0,0.0
1457,2.845703125,45,23.0,0.0
1458,2.84765625,45,40.0,0.0
1459,2.849609375,45,54.0,0.0
1460,2.8515625,45,52.0,0.0
1461,2.853515625,45,38.0,0.0
1462,2.85546875,45,26.0,33552.0
1463,2.857421875,45,37.0,0.0
1464,2.859375,45,41.0,0.0
1465,2.861328125,45,42.0,0.0
1466,2.86328125,45,37.0,0.0
1467,2.865234375,45,37.0,0.0
1468,2.8671875,45,52.0,0.0
1469,2.869140625,45,53.0,0.0
1470,2.87109375,45,50.0,0.0
1471,2.873046875,45,44.0,0.0
1472,2.875,46,20.0,0.0
1473,2.876953125,46,6.0,0.0
1474,2.87890625,46,21.0,0.0
1475,2.880859375,46,33.0,0.0
1476,2.8828125,46,35.0,0.0
1477,2.884765625,46,24.0,0.0
1478,2.88671875,46,17.0,0.0
1479,2.888671875,46,25.0,0.0
1480,2.890625,46,41.0,0.0
1481,2.892578125,46,48.0,0.0
1482,2.89453125,46,41.0,0.0
1483,2.896484375,46,23.0,0.0
1484,2.8984375,46,16.0,0.0
1485,2.900390625,46,23.0,0.0
1486,2.90234375,46,43.0,0.0
1487,2.904296875,46,64.0,0.0
1488,2.90625,46,75.0,0.0
1489,2.908203125,46,80.0,0.0
1490,2.91015625,46,81.0,0.0
1491,2.912109375,46,68.0,0.0
1492,2.9140625,46,42.0,0.0
1493,2.916015625,46,48.0,0.0
1494,2.91796875,46,65.0,0.0
1495,2.919921875,46,58.0,0.0
1496,2.921875,46,19.0,0.0
1497,2.923828125,46,-39.0,0.0
1498,2.92578125,46,-55.0,0.0
1499,2.927734375,46,-1.0,0.0
1500,2.9296875,46,51.0,0.0
1501,2.931640625,46,54.0,0.0
1502,2.93359375,46,37.0,0.0
1503,2.935546875,46,35.0,0.0
1504,2.9375,47,55.0,0.0
1505,2.939453125,47,76.0,0.0
1506,2.94140625,47,96.0,0.0
1507,2.943359375,47,96.0,0.0
1508,2.9453125,47,81.0,0.0
1509,2.947265625,47,56.0,0.0
1510,2.94921875,47,45.0,0.0
1511,2.951171875,47,50.0,0.0
1512,2.953125,47,45.0,0.0
1513,2.955078125,47,42.0,0.0
1514,2.95703125,47,51.0,0.0
1515,2.958984375,47,44.0,0.0
1516,2.9609375,47,33.0,0.0
1517,2.962890625,47,27.0,0.0
1518,2.96484375,47,40.0,0.0
1519,2.966796875,47,44.0,0.0
1520,2.96875,47,12.0,0.0
1521,2.970703125,47,-29.0,0.0
1522,2.97265625,47,-25.0,0.0
1523,2.974609375,47,25.0,0.0
1524,2.9765625,47,56.0,0.0
1525,2.978515625,47,57.0,33552.0
1526,2.98046875,47,58.0,0.0
1527,2.982421875,47,53.0,0.0
1528,2.984375,47,59.0,0.0
1529,2.986328125,47,80.0,0.0
1530,2.98828125,47,84.0,0.0
1531,2.990234375,47,85.0,0.0
1532,2.9921875,47,84.0,0.0
1533,2.994140625,47,70.0,0.0
1534,2.99609375,47,64.0,0.0
1535,2.998046875,47,58.0,0.0
1536,3.0,48,43.0,0.0
1537,3.001953125,48,39.0,0.0
1538,3.00390625,48,35.0,0.0
1539,3.005859375,48,24.0,0.0
1540,3.0078125,48,11.0,0.0
1541,3.009765625,48,2.0,0.0
1542,3.01171875,48,-4.0,0.0
1543,3.013671875,48,5.0,0.0
1544,3.015625,48,29.0,0.0
1545,3.017578125,48,34.0,0.0
1546,3.01953125,48,0.0,0.0
1547,3.021484375,48,-7.0,0.0
1548,3.0234375,48,29.0,0.0
1549,3.025390625,48,61.0,0.0
1550,3.02734375,48,60.0,0.0
1551,3.029296875,48,52.0,0.0
1552,3.03125,48,42.0,0.0
1553,3.033203125,48,41.0,0.0
1554,3.03515625,48,39.0,0.0
1555,3.037109375,48,38.0,33552.0
1556,3.0390625,48,48.0,0.0
1557,3.041015625,48,64.0,0.0
1558,3.04296875,48,68.0,0.0
1559,3.044921875,48,70.0,0.0
1560,3.046875,48,76.0,0.0
1561,3.048828125,48,52.0,0.0
1562,3.05078125,48,24.0,0.0
1563,3.052734375,48,51.0,0.0
1564,3.0546875,48,84.0,0.0
1565,3.056640625,48,103.0,0.0
1566,3.05859375,48,114.0,0.0
1567,3.060546875,48,134.0,0.0
1568,3.0625,49,164.0,0.0
1569,3.064453125,49,171.0,0.0
1570,3.06640625,49,144.0,0.0
1571,3.068359375,49,109.0,0.0
1572,3.0703125,49,122.0,0.0
1573,3.072265625,49,138.0,0.0
1574,3.07421875,49,118.0,0.0
1575,3.076171875,49,96.0,0.0
1576,3.078125,49,85.0,0.0
1577,3.080078125,49,89.0,0.0
1578,3.08203125,49,105.0,0.0
1579,3.083984375,49,114.0,0.0
1580,3.0859375,49,104.0,0.0
1581,3.087890625,49,88.0,0.0
1582,3.08984375,49,70.0,0.0
1583,3.091796875,49,64.0,0.0
1584,3.09375,49,50.0,0.0
1585,3.095703125,49,48.0,33552.0
1586,3.09765625,49,52.0,0.0
1587,3.099609375,49,41.0,0.0
1588,3.1015625,49,26.0,0.0
1589,3.103515625,49,28.0,0.0
1590,3.10546875,49,42.0,0.0
1591,3.107421875,49,45.0,0.0
1592,3.109375,49,40.0,0.0
1593,3.111328125,49,45.0,0.0
1594,3.11328125,49,50.0,0.0
1595,3.115234375,49,48.0,0.0
1596,3.1171875,49,27.0,0.0
1597,3.119140625,49,-22.0,0.0
1598,3.12109375,49,-75.0,0.0
1599,3.123046875,49,-108.0,0.0
1600,3.125,50,-117.0,0.0
1601,3.126953125,50,-103.0,0.0
1602,3.12890625,50,-67.0,0.0
1603,3.130859375,50,-28.0,0.0
1604,3.1328125,50,-11.0,0.0
1605,3.134765625,50,0.0,0.0
1606,3.13671875,50,4.0,0.0
1607,3.138671875,50,6.0,0.0
1608,3.140625,50,21.0,0.0
1609,3.142578125,50,42.0,0.0
1610,3.14453125,50,48.0,0.0
1611,3.146484375,50,43.0,0.0
1612,3.1484375,50,37.0,0.0
1613,3.150390625,50,33.0,0.0
1614,3.15234375,50,26.0,0.0
1615,3.154296875,50,34.0,0.0
1616,3.15625,50,51.0,0.0
1617,3.158203125,50,58.0,0.0
1618,3.16015625,50,59.0,0.0
1619,3.162109375,50,38.0,0.0
1620,3.1640625,50,-3.0,0.0
1621,3.166015625,50,-36.0,0.0
1622,3.16796875,50,-36.0,0.0
1623,3.169921875,50,-5.0,0.0
1624,3.171875,50,11.0,0.0
1625,3.173828125,50,21.0,0.0
1626,3.17578125,50,33.0,0.0
1627,3.177734375,50,29.0,0.0
1628,3.1796875,50,26.0,0.0
1629,3.181640625,50,41.0,0.0
1630,3.18359375,50,53.0,0.0
1631,3.185546875,50,54.0,0.0
1632,3.1875,51,50.0,0.0
1633,3.189453125,51,54.0,0.0
1634,3.19140625,51,61.0,0.0
1635,3.193359375,51,55.0,0.0
1636,3.1953125,51,40.0,0.0
1637,3.197265625,51,26.0,0.0
1638,3.19921875,51,32.0,0.0
1639,3.201171875,51,39.0,0.0
1640,3.203125,51,38.0,0.0
1641,3.205078125,51,27.0,0.0
1642,3.20703125,51,12.0,0.0
1643,3.208984375,51,-1.0,0.0
1644,3.2109375,51,-25.0,0.0
1645,3.212890625,51,74.0,33552.0
1646,3.21484375,51,53.0,0.0
1647,3.216796875,51,35.0,0.0
1648,3.21875,51,40.0,0.0
1649,3.220703125,51,49.0,0.0
1650,3.22265625,51,61.0,0.0
1651,3.224609375,51,73.0,0.0
1652,3.2265625,51,60.0,0.0
1653,3.228515625,51,34.0,0.0
1654,3.23046875,51,27.0,0.0
1655,3.232421875,51,48.0,0.0
1656,3.234375,51,60.0,0.0
1657,3.236328125,51,67.0,0.0
1658,3.23828125,51,61.0,0.0
1659,3.240234375,51,40.0,0.0
1660,3.2421875,51,25.0,0.0
1661,3.244140625,51,49.0,0.0
1662,3.24609375,51,76.0,0.0
1663,3.248046875,51,72.0,0.0
1664,3.25,52,56.0,0.0
1665,3.251953125,52,60.0,0.0
1666,3.25390625,52,69.0,0.0
1667,3.255859375,52,66.0,0.0
1668,3.2578125,52,60.0,0.0
1669,3.259765625,52,70.0,0.0
1670,3.26171875,52,89.0,0.0
1671,3.263671875,52,107.0,0.0
1672,3.265625,52,113.0,0.0
1673,3.267578125,52,116.0,0.0
1674,3.26953125,52,114.0,0.0
1675,3.271484375,52,58.0,33552.0
1676,3.2734375,52,64.0,0.0
1677,3.275390625,52,59.0,0.0
1678,3.27734375,52,36.0,0.0
1679,3.279296875,52,32.0,0.0
1680,3.28125,52,41.0,0.0
1681,3.283203125,52,64.0,0.0
1682,3.28515625,52,82.0,0.0
1683,3.287109375,52,87.0,0.0
1684,3.2890625,52,84.0,0.0
1685,3.291015625,52,80.0,0.0
1686,3.29296875,52,73.0,0.0
1687,3.294921875,52,69.0,0.0
1688,3.296875,52,58.0,0.0
1689,3.298828125,52,53.0,0.0
1690,3.30078125,52,27.0,0.0
1691,3.302734375,52,-4.0,0.0
1692,3.3046875,52,-25.0,0.0
1693,3.306640625,52,-40.0,0.0
1694,3.30859375,52,-49.0,0.0
1695,3.310546875,52,-45.0,0.0
1696,3.3125,53,-38.0,0.0
1697,3.314453125,53,-19.0,0.0
1698,3.31640625,53,-7.0,0.0
1699,3.318359375,53,-25.0,0.0
1700,3.3203125,53,-37.0,0.0
1701,3.322265625,53,-19.0,0.0
1702,3.32421875,53,3.0,0.0
1703,3.326171875,53,20.0,0.0
1704,3.328125,53,-2.0,0.0
1705,3.330078125,53,-37.0,0.0
1706,3.33203125,53,-18.0,33552.0
1707,3.333984375,53,0.0,0.0
1708,3.3359375,53,8.0,0.0
1709,3.337890625,53,6.0,0.0
1710,3.33984375,53,10.0,0.0
1711,3.341796875,53,4.0,0.0
1712,3.34375,53,-7.0,0.0
1713,3.345703125,53,-10.0,0.0
1714,3.34765625,53,-14.0,0.0
1715,3.349609375,53,-8.0,0.0
1716,3.3515625,53,16.0,0.0
1717,3.353515625,53,38.0,0.0
1718,3.35546875,53,58.0,0.0
1719,3.357421875,53,70.0,0.0
1720,3.359375,53,82.0,0.0
1721,3.361328125,53,101.0,0.0
1722,3.36328125,53,120.0,0.0
1723,3.365234375,53,123.0,0.0
1724,3.3671875,53,102.0,0.0
1725,3.369140625,53,84.0,0.0
1726,3.37109375,53,88.0,0.0
1727,3.373046875,53,84.0,0.0
1728,3.375,54,66.0,0.0
1729,3.376953125,54,60.0,0.0
1730,3.37890625,54,65.0,0.0
1731,3.380859375,54,58.0,0.0
1732,3.3828125,54,45.0,0.0
1733,3.384765625,54,35.0,0.0
1734,3.38671875,54,35.0,0.0
1735,3.388671875,54,43.0,0.0
1736,3.390625,54,52.0,0.0
1737,3.392578125,54,61.0,33552.0
1738,3.39453125,54,52.0,0.0
1739,3.396484375,54,38.0,0.0
1740,3.3984375,54,35.0,0.0
1741,3.400390625,54,39.0,0.0
1742,3.40234375,54,39.0,0.0
1743,3.404296875,54,27.0,0.0
1744,3.40625,54,5.0,0.0
1745,3.408203125,54,4.0,0.0
1746,3.41015625,54,40.0,0.0
1747,3.412109375,54,66.0,0.0
1748,3.4140625,54,52.0,0.0
1749,3.416015625,54,27.0,0.0
1750,3.41796875,54,23.0,0.0
1751,3.419921875,54,25.0,0.0
1752,3.421875,54,27.0,0.0
1753,3.423828125,54,44.0,0.0
1754,3.42578125,54,67.0,0.0
1755,3.427734375,54,76.0,0.0
1756,3.4296875,54,70.0,0.0
1757,3.431640625,54,52.0,0.0
1758,3.43359375,54,38.0,0.0
1759,3.435546875,54,50.0,0.0
1760,3.4375,55,55.0,0.0
1761,3.439453125,55,57.0,0.0
1762,3.44140625,55,54.0,0.0
1763,3.443359375,55,35.0,0.0
1764,3.4453125,55,27.0,0.0
1765,3.447265625,55,39.0,0.0
1766,3.44921875,55,43.0,0.0
1767,3.451171875,55,43.0,0.0
1768,3.453125,55,49.0,33552.0
1769,3.455078125,55,25.0,0.0
1770,3.45703125,55,21.0,0.0
1771,3.458984375,55,34.0,0.0
1772,3.4609375,55,26.0,0.0
1773,3.462890625,55,10.0,0.0
1774,3.46484375,55,8.0,0.0
1775,3.466796875,55,16.0,0.0
1776,3.46875,55,18.0,0.0
1777,3.470703125,55,-3.0,0.0
1778,3.47265625,55,-10.0,0.0
1779,3.474609375,55,21.0,0.0
1780,3.4765625,55,59.0,0.0
1781,3.478515625,55,70.0,0.0
1782,3.48046875,55,58.0,0.0
1783,3.482421875,55,49.0,0.0
1784,3.484375,55,48.0,0.0
1785,3.486328125,55,49.0,0.0
1786,3.48828125,55,58.0,0.0
1787,3.490234375,55,69.0,0.0
1788,3.4921875,55,64.0,0.0
1789,3.494140625,55,59.0,0.0
1790,3.49609375,55,57.0,0.0
1791,3.498046875,55,65.0,0.0
1792,3.5,56,70.0,0.0
1793,3.501953125,56,72.0,0.0
1794,3.50390625,56,68.0,0.0
1795,3.505859375,56,41.0,0.0
1796,3.5078125,56,16.0,0.0
1797,3.509765625,56,7.0,0.0
1798,3.51171875,56,5.0,0.0
1799,3.513671875,56,6.0,0.0
1800,3.515625,56,13.0,0.0
1801,3.517578125,56,18.0,0.0
1802,3.51953125,56,20.0,0.0
1803,3.521484375,56,37.0,0.0
1804,3.5234375,56,50.0,0.0
1805,3.525390625,56,56.0,0.0
1806,3.52734375,56,64.0,0.0
1807,3.529296875,56,80.0,0.0
1808,3.53125,56,81.0,0.0
1809,3.533203125,56,68.0,0.0
1810,3.53515625,56,56.0,0.0
1811,3.537109375,56,50.0,0.0
1812,3.5390625,56,51.0,0.0
1813,3.541015625,56,59.0,0.0
1814,3.54296875,56,73.0,0.0
1815,3.544921875,56,74.0,0.0
1816,3.546875,56,60.0,0.0
1817,3.548828125,56,53.0,0.0
1818,3.55078125,56,50.0,0.0
1819,3.552734375,56,37.0,0.0
1820,3.5546875,56,33.0,0.0
1821,3.556640625,56,36.0,0.0
1822,3.55859375,56,40.0,0.0
1823,3.560546875,56,48.0,0.0
1824,3.5625,57,49.0,0.0
1825,3.564453125,57,53.0,0.0
1826,3.56640625,57,58.0,0.0
1827,3.568359375,57,71.0,0.0
1828,3.5703125,57,87.0,0.0
1829,3.572265625,57,100.0,0.0
1830,3.57421875,57,80.0,33552.0
1831,3.576171875,57,81.0,0.0
1832,3.578125,57,72.0,0.0
1833,3.580078125,57,73.0,0.0
1834,3.58203125,57,80.0,0.0
1835,3.583984375,57,70.0,0.0
1836,3.5859375,57,68.0,0.0
1837,3.587890625,57,67.0,0.0
1838,3.58984375,57,68.0,0.0
1839,3.591796875,57,58.0,0.0
1840,3.59375,57,50.0,0.0
1841,3.595703125,57,49.0,0.0
1842,3.59765625,57,59.0,0.0
1843,3.599609375,57,61.0,0.0
1844,3.6015625,57,51.0,0.0
1845,3.603515625,57,50.0,0.0
1846,3.60546875,57,61.0,0.0
1847,3.607421875,57,75.0,0.0
1848,3.609375,57,66.0,0.0
1849,3.611328125,57,40.0,0.0
1850,3.61328125,57,18.0,0.0
1851,3.615234375,57,10.0,0.0
1852,3.6171875,57,18.0,0.0
1853,3.619140625,57,28.0,0.0
1854,3.62109375,57,49.0,0.0
1855,3.623046875,57,69.0,0.0
1856,3.625,58,68.0,0.0
1857,3.626953125,58,42.0,0.0
1858,3.62890625,58,27.0,0.0
1859,3.630859375,58,52.0,33552.0
1860,3.6328125,58,21.0,0.0
1861,3.634765625,58,25.0,0.0
1862,3.63671875,58,48.0,0.0
1863,3.638671875,58,66.0,0.0
1864,3.640625,58,80.0,0.0
1865,3.642578125,58,96.0,0.0
1866,3.64453125,58,98.0,0.0
1867,3.646484375,58,88.0,0.0
1868,3.6484375,58,54.0,0.0
1869,3.650390625,58,17.0,0.0
1870,3.65234375,58,16.0,0.0
1871,3.654296875,58,33.0,0.0
1872,3.65625,58,29.0,0.0
1873,3.658203125,58,39.0,0.0
1874,3.66015625,58,54.0,0.0
1875,3.662109375,58,55.0,0.0
1876,3.6640625,58,54.0,0.0
1877,3.666015625,58,48.0,0.0
1878,3.66796875,58,40.0,0.0
1879,3.669921875,58,24.0,0.0
1880,3.671875,58,3.0,0.0
1881,3.673828125,58,0.0,0.0
1882,3.67578125,58,20.0,0.0
1883,3.677734375,58,38.0,0.0
1884,3.6796875,58,44.0,0.0
1885,3.681640625,58,57.0,0.0
1886,3.68359375,58,81.0,0.0
1887,3.685546875,58,101.0,0.0
1888,3.6875,59,88.0,33552.0
1889,3.689453125,59,90.0,33552.0
1890,3.69140625,59,85.0,0.0
1891,3.693359375,59,71.0,0.0
1892,3.6953125,59,70.0,0.0
1893,3.697265625,59,74.0,0.0
1894,3.69921875,59,71.0,0.0
1895,3.701171875,59,40.0,0.0
1896,3.703125,59,18.0,0.0
1897,3.705078125,59,25.0,0.0
1898,3.70703125,59,40.0,0.0
1899,3.708984375,59,44.0,0.0
1900,3.7109375,59,38.0,0.0
1901,3.712890625,59,22.0,0.0
1902,3.71484375,59,10.0,0.0
1903,3.716796875,59,12.0,0.0
1904,3.71875,59,10.0,0.0
1905,3.720703125,59,-3.0,0.0
1906,3.72265625,59,-18.0,0.0
1907,3.724609375,59,-18.0,0.0
1908,3.7265625,59,-37.0,0.0
1909,3.728515625,59,-67.0,0.0
1910,3.73046875,59,-74.0,0.0
1911,3.732421875,59,-38.0,0.0
1912,3.734375,59,21.0,0.0
1913,3.736328125,59,60.0,0.0
1914,3.73828125,59,64.0,0.0
1915,3.740234375,59,32.0,0.0
1916,3.7421875,59,7.0,0.0
1917,3.744140625,59,28.0,0.0
1918,3.74609375,59,65.0,0.0
1919,3.748046875,59,49.0,33552.0
1920,3.75,60,34.0,0.0
1921,3.751953125,60,27.0,0.0
1922,3.75390625,60,24.0,0.0
1923,3.755859375,60,23.0,0.0
1924,3.7578125,60,28.0,0.0
1925,3.759765625,60,34.0,0.0
1926,3.76171875,60,37.0,0.0
1927,3.763671875,60,60.0,0.0
1928,3.765625,60,80.0,0.0
1929,3.767578125,60,74.0,0.0
1930,3.76953125,60,54.0,0.0
1931,3.771484375,60,59.0,0.0
1932,3.7734375,60,77.0,0.0
1933,3.775390625,60,68.0,0.0
1934,3.77734375,60,39.0,0.0
1935,3.779296875,60,27.0,0.0
1936,3.78125,60,25.0,0.0
1937,3.783203125,60,24.0,0.0
1938,3.78515625,60,27.0,0.0
1939,3.787109375,60,34.0,0.0
1940,3.7890625,60,38.0,0.0
1941,3.791015625,60,38.0,0.0
1942,3.79296875,60,36.0,0.0
1943,3.794921875,60,27.0,0.0
1944,3.796875,60,20.0,0.0
1945,3.798828125,60,18.0,0.0
1946,3.80078125,60,20.0,0.0
1947,3.802734375,60,34.0,0.0
1948,3.8046875,60,35.0,0.0
1949,3.806640625,60,54.0,33552.0
1950,3.80859375,60,52.0,0.0
1951,3.810546875,60,48.0,0.0
1952,3.8125,61,42.0,0.0
1953,3.814453125,61,44.0,0.0
1954,3.81640625,61,59.0,0.0
1955,3.818359375,61,71.0,0.0
1956,3.8203125,61,68.0,0.0
1957,3.822265625,61,74.0,0.0
1958,3.82421875,61,80.0,0.0
1959,3.826171875,61,71.0,0.0
1960,3.828125,61,68.0,0.0
1961,3.830078125,61,60.0,0.0
1962,3.83203125,61,42.0,0.0
1963,3.833984375,61,23.0,0.0
1964,3.8359375,61,27.0,0.0
1965,3.837890625,61,53.0,0.0
1966,3.83984375,61,68.0,0.0
1967,3.841796875,61,59.0,0.0
1968,3.84375,61,42.0,0.0
1969,3.845703125,61,45.0,0.0
1970,3.84765625,61,59.0,0.0
1971,3.849609375,61,66.0,0.0
1972,3.8515625,61,71.0,0.0
1973,3.853515625,61,74.0,0.0
1974,3.85546875,61,66.0,0.0
1975,3.857421875,61,60.0,0.0
1976,3.859375,61,68.0,0.0
1977,3.861328125,61,87.0,0.0
1978,3.86328125,61,104.0,0.0
1979,3.865234375,61,97.0,33552.0
1980,3.8671875,61,85.0,0.0
1981,3.869140625,61,54.0,0.0
1982,3.87109375,61,28.0,0.0
1983,3.873046875,61,35.0,0.0
1984,3.875,62,44.0,0.0
1985,3.876953125,62,41.0,0.0
1986,3.87890625,62,49.0,0.0
1987,3.880859375,62,44.0,0.0
1988,3.8828125,62,35.0,0.0
1989,3.884765625,62,26.0,0.0
1990,3.88671875,62,22.0,0.0
1991,3.888671875,62,24.0,0.0
1992,3.890625,62,28.0,0.0
1993,3.892578125,62,22.0,0.0
1994,3.89453125,62,17.0,0.0
1995,3.896484375,62,13.0,0.0
1996,3.8984375,62,28.0,0.0
1997,3.900390625,62,42.0,0.0
1998,3.90234375,62,25.0,0.0
1999,3.904296875,62,6.0,0.0
2000,3.90625,62,8.0,0.0
2001,3.908203125,62,25.0,0.0
2002,3.91015625,62,28.0,0.0
2003,3.912109375,62,36.0,0.0
2004,3.9140625,62,35.0,0.0
2005,3.916015625,62,27.0,0.0
2006,3.91796875,62,22.0,0.0
2007,3.919921875,62,12.0,0.0
2008,3.921875,62,6.0,0.0
2009,3.923828125,62,-5.0,33552.0
2010,3.92578125,62,-10.0,0.0
2011,3.927734375,62,-22.0,0.0
2012,3.9296875,62,-41.0,0.0
2013,3.931640625,62,-52.0,0.0
2014,3.93359375,62,-41.0,0.0
2015,3.935546875,62,-24.0,0.0
2016,3.9375,63,-5.0,0.0
2017,3.939453125,63,16.0,0.0
2018,3.94140625,63,22.0,0.0
2019,3.943359375,63,18.0,0.0
2020,3.9453125,63,5.0,0.0
2021,3.947265625,63,-13.0,0.0
2022,3.94921875,63,-26.0,0.0
2023,3.951171875,63,-22.0,0.0
2024,3.953125,63,-4.0,0.0
2025,3.955078125,63,-5.0,0.0
2026,3.95703125,63,-17.0,0.0
2027,3.958984375,63,-3.0,0.0
2028,3.9609375,63,26.0,0.0
2029,3.962890625,63,38.0,0.0
2030,3.96484375,63,43.0,0.0
2031,3.966796875,63,54.0,0.0
2032,3.96875,63,68.0,0.0
2033,3.970703125,63,71.0,0.0
2034,3.97265625,63,80.0,0.0
2035,3.974609375,63,76.0,0.0
2036,3.9765625,63,66.0,0.0
2037,3.978515625,63,73.0,0.0
2038,3.98046875,63,87.0,0.0
2039,3.982421875,63,73.0,0.0
2040,3.984375,63,53.0,0.0
2041,3.986328125,63,49.0,0.0
2042,3.98828125,63,67.0,0.0
2043,3.990234375,63,72.0,0.0
2044,3.9921875,63,55.0,0.0
2045,3.994140625,63,45.0,0.0
2046,3.99609375,63,43.0,0.0
2047,3.998046875,63,39.0,0.0
2048,4.0,64,44.0,0.0
2049,4.001953125,64,50.0,0.0
2050,4.00390625,64,50.0,0.0
2051,4.005859375,64,44.0,0.0
2052,4.0078125,64,41.0,0.0
2053,4.009765625,64,48.0,0.0
2054,4.01171875,64,36.0,0.0
2055,4.013671875,64,6.0,0.0
2056,4.015625,64,-12.0,0.0
2057,4.017578125,64,-12.0,0.0
2058,4.01953125,64,3.0,0.0
2059,4.021484375,64,26.0,0.0
2060,4.0234375,64,53.0,0.0
2061,4.025390625,64,66.0,0.0
2062,4.02734375,64,72.0,0.0
2063,4.029296875,64,91.0,0.0
2064,4.03125,64,129.0,0.0
2065,4.033203125,64,151.0,0.0
2066,4.03515625,64,138.0,0.0
2067,4.037109375,64,104.0,0.0
2068,4.0390625,64,86.0,0.0
2069,4.041015625,64,84.0,0.0
2070,4.04296875,64,76.0,0.0
2071,4.044921875,64,76.0,0.0
2072,4.046875,64,84.0,0.0
2073,4.048828125,64,99.0,0.0
2074,4.05078125,64,115.0,0.0
2075,4.052734375,64,112.0,0.0
2076,4.0546875,64,107.0,0.0
2077,4.056640625,64,102.0,0.0
2078,4.05859375,64,100.0,0.0
2079,4.060546875,64,122.0,0.0
2080,4.0625,65,146.0,0.0
2081,4.064453125,65,149.0,0.0
2082,4.06640625,65,148.0,0.0
2083,4.068359375,65,128.0,0.0
2084,4.0703125,65,90.0,0.0
2085,4.072265625,65,72.0,0.0
2086,4.07421875,65,61.0,0.0
2087,4.076171875,65,39.0,0.0
2088,4.078125,65,22.0,0.0
2089,4.080078125,65,19.0,0.0
2090,4.08203125,65,17.0,0.0
2091,4.083984375,65,22.0,0.0
2092,4.0859375,65,20.0,0.0
2093,4.087890625,65,5.0,0.0
2094,4.08984375,65,8.0,0.0
2095,4.091796875,65,18.0,0.0
2096,4.09375,65,17.0,0.0
2097,4.095703125,65,12.0,0.0
2098,4.09765625,65,8.0,0.0
2099,4.099609375,65,1.0,0.0
2100,4.1015625,65,8.0,0.0
2101,4.103515625,65,20.0,0.0
2102,4.10546875,65,16.0,0.0
2103,4.107421875,65,8.0,0.0
2104,4.109375,65,5.0,33552.0
2105,4.111328125,65,-7.0,0.0
2106,4.11328125,65,5.0,0.0
2107,4.115234375,65,25.0,0.0
2108,4.1171875,65,34.0,0.0
2109,4.119140625,65,22.0,0.0
2110,4.12109375,65,0.0,0.0
2111,4.123046875,65,-7.0,0.0
2112,4.125,66,7.0,0.0
2113,4.126953125,66,28.0,0.0
2114,4.12890625,66,35.0,0.0
2115,4.130859375,66,32.0,0.0
2116,4.1328125,66,42.0,0.0
2117,4.134765625,66,53.0,0.0
2118,4.13671875,66,43.0,0.0
2119,4.138671875,66,35.0,0.0
2120,4.140625,66,34.0,0.0
2121,4.142578125,66,36.0,0.0
2122,4.14453125,66,29.0,0.0
2123,4.146484375,66,16.0,0.0
2124,4.1484375,66,-2.0,0.0
2125,4.150390625,66,5.0,0.0
2126,4.15234375,66,24.0,0.0
2127,4.154296875,66,37.0,0.0
2128,4.15625,66,22.0,0.0
2129,4.158203125,66,-7.0,0.0
2130,4.16015625,66,-19.0,0.0
2131,4.162109375,66,-2.0,0.0
2132,4.1640625,66,28.0,0.0
2133,4.166015625,66,38.0,0.0
2134,4.16796875,66,34.0,0.0
2135,4.169921875,66,51.0,0.0
2136,4.171875,66,72.0,0.0
2137,4.173828125,66,66.0,0.0
2138,4.17578125,66,34.0,0.0
2139,4.177734375,66,17.0,0.0
2140,4.1796875,66,27.0,0.0
2141,4.181640625,66,45.0,0.0
2142,4.18359375,66,43.0,0.0
2143,4.185546875,66,41.0,0.0
2144,4.1875,67,56.0,0.0
2145,4.189453125,67,76.0,0.0
2146,4.19140625,67,89.0,0.0
2147,4.193359375,67,77.0,0.0
2148,4.1953125,67,52.0,0.0
2149,4.197265625,67,38.0,0.0
2150,4.19921875,67,36.0,0.0
2151,4.201171875,67,38.0,0.0
2152,4.203125,67,51.0,0.0
2153,4.205078125,67,70.0,0.0
2154,4.20703125,67,72.0,0.0
2155,4.208984375,67,70.0,0.0
2156,4.2109375,67,69.0,0.0
2157,4.212890625,67,71.0,0.0
2158,4.21484375,67,70.0,0.0
2159,4.216796875,67,53.0,0.0
2160,4.21875,67,35.0,0.0
2161,4.220703125,67,23.0,0.0
2162,4.22265625,67,20.0,0.0
2163,4.224609375,67,21.0,0.0
2164,4.2265625,67,32.0,0.0
2165,4.228515625,67,54.0,0.0
2166,4.23046875,67,71.0,0.0
2167,4.232421875,67,59.0,0.0
2168,4.234375,67,52.0,0.0
2169,4.236328125,67,55.0,0.0
2170,4.23828125,67,56.0,0.0
2171,4.240234375,67,55.0,0.0
2172,4.2421875,67,56.0,0.0
2173,4.244140625,67,53.0,0.0
2174,4.24609375,67,48.0,0.0
2175,4.248046875,67,22.0,0.0
2176,4.25,68,5.0,0.0
2177,4.251953125,68,12.0,0.0
2178,4.25390625,68,34.0,0.0
2179,4.255859375,68,52.0,0.0
2180,4.2578125,68,53.0,0.0
2181,4.259765625,68,41.0,0.0
2182,4.26171875,68,40.0,0.0
2183,4.263671875,68,43.0,0.0
2184,4.265625,68,40.0,0.0
2185,4.267578125,68,38.0,0.0
2186,4.26953125,68,44.0,0.0
2187,4.271484375,68,57.0,0.0
2188,4.2734375,68,70.0,0.0
2189,4.275390625,68,65.0,0.0
2190,4.27734375,68,44.0,0.0
2191,4.279296875,68,48.0,0.0
2192,4.28125,68,53.0,0.0
2193,4.283203125,68,51.0,0.0
2194,4.28515625,68,42.0,0.0
2195,4.287109375,68,20.0,0.0
2196,4.2890625,68,8.0,0.0
2197,4.291015625,68,10.0,0.0
2198,4.29296875,68,24.0,0.0
2199,4.294921875,68,38.0,0.0
2200,4.296875,68,41.0,0.0
2201,4.298828125,68,27.0,0.0
2202,4.30078125,68,24.0,0.0
2203,4.302734375,68,40.0,0.0
2204,4.3046875,68,48.0,0.0
2205,4.306640625,68,36.0,0.0
2206,4.30859375,68,35.0,0.0
2207,4.310546875,68,39.0,0.0
2208,4.3125,69,42.0,0.0
2209,4.314453125,69,44.0,0.0
2210,4.31640625,69,45.0,0.0
2211,4.318359375,69,54.0,0.0
2212,4.3203125,69,71.0,0.0
2213,4.322265625,69,81.0,0.0
2214,4.32421875,69,66.0,0.0
2215,4.326171875,69,44.0,0.0
2216,4.328125,69,51.0,0.0
2217,4.330078125,69,66.0,0.0
2218,4.33203125,69,65.0,0.0
2219,4.333984375,69,44.0,0.0
2220,4.3359375,69,33.0,0.0
2221,4.337890625,69,32.0,0.0
2222,4.33984375,69,37.0,0.0
2223,4.341796875,69,36.0,0.0
2224,4.34375,69,27.0,0.0
2225,4.345703125,69,24.0,0.0
2226,4.34765625,69,27.0,0.0
2227,4.349609375,69,22.0,0.0
2228,4.3515625,69,0.0,0.0
2229,4.353515625,69,-19.0,0.0
2230,4.35546875,69,-25.0,0.0
2231,4.357421875,69,-33.0,0.0
2232,4.359375,69,-34.0,0.0
2233,4.361328125,69,-30.0,0.0
2234,4.36328125,69,-27.0,0.0
2235,4.365234375,69,-27.0,0.0
2236,4.3671875,69,-18.0,0.0
2237,4.369140625,69,-12.0,0.0
2238,4.37109375,69,-28.0,0.0
2239,4.373046875,69,-39.0,0.0
2240,4.375,70,-36.0,0.0
2241,4.376953125,70,-35.0,0.0
2242,4.37890625,70,-49.0,0.0
2243,4.380859375,70,-61.0,0.0
2244,4.3828125,70,-55.0,0.0
2245,4.384765625,70,-38.0,0.0
2246,4.38671875,70,-37.0,0.0
2247,4.388671875,70,-43.0,0.0
2248,4.390625,70,-46.0,0.0
2249,4.392578125,70,-39.0,0.0
2250,4.39453125,70,-36.0,0.0
2251,4.396484375,70,-42.0,0.0
2252,4.3984375,70,-43.0,0.0
2253,4.400390625,70,-36.0,0.0
2254,4.40234375,70,-29.0,0.0
2255,4.404296875,70,-42.0,0.0
2256,4.40625,70,-59.0,0.0
2257,4.408203125,70,-61.0,0.0
2258,4.41015625,70,-50.0,0.0
2259,4.412109375,70,-40.0,0.0
2260,4.4140625,70,-27.0,0.0
2261,4.416015625,70,-11.0,0.0
2262,4.41796875,70,-1.0,0.0
2263,4.419921875,70,27.0,33552.0
2264,4.421875,70,41.0,0.0
2265,4.423828125,70,36.0,0.0
2266,4.42578125,70,20.0,0.0
2267,4.427734375,70,12.0,0.0
2268,4.4296875,70,23.0,0.0
2269,4.431640625,70,40.0,0.0
2270,4.43359375,70,45.0,0.0
2271,4.435546875,70,32.0,0.0
2272,4.4375,71,25.0,0.0
2273,4.439453125,71,44.0,0.0
2274,4.44140625,71,53.0,0.0
2275,4.443359375,71,37.0,0.0
2276,4.4453125,71,37.0,0.0
2277,4.447265625,71,65.0,0.0
2278,4.44921875,71,85.0,0.0
2279,4.451171875,71,80.0,0.0
2280,4.453125,71,69.0,0.0
2281,4.455078125,71,67.0,0.0
2282,4.45703125,71,68.0,0.0
2283,4.458984375,71,76.0,0.0
2284,4.4609375,71,77.0,0.0
2285,4.462890625,71,64.0,0.0
2286,4.46484375,71,64.0,0.0
2287,4.466796875,71,65.0,0.0
2288,4.46875,71,50.0,0.0
2289,4.470703125,71,44.0,0.0
2290,4.47265625,71,54.0,0.0
2291,4.474609375,71,64.0,0.0
2292,4.4765625,71,60.0,0.0
2293,4.478515625,71,55.0,0.0
2294,4.48046875,71,64.0,0.0
2295,4.482421875,71,59.0,0.0
2296,4.484375,71,49.0,0.0
2297,4.486328125,71,54.0,0.0
2298,4.48828125,71,64.0,0.0
2299,4.490234375,71,67.0,0.0
2300,4.4921875,71,67.0,0.0
2301,4.494140625,71,66.0,0.0
2302,4.49609375,71,72.0,0.0
2303,4.498046875,71,72.0,0.0
2304,4.5,72,66.0,0.0
2305,4.501953125,72,58.0,0.0
2306,4.50390625,72,65.0,0.0
2307,4.505859375,72,73.0,0.0
2308,4.5078125,72,70.0,0.0
2309,4.509765625,72,64.0,0.0
2310,4.51171875,72,74.0,0.0
2311,4.513671875,72,93.0,0.0
2312,4.515625,72,86.0,0.0
2313,4.517578125,72,45.0,0.0
2314,4.51953125,72,25.0,0.0
2315,4.521484375,72,27.0,0.0
2316,4.5234375,72,34.0,0.0
2317,4.525390625,72,25.0,0.0
2318,4.52734375,72,16.0,0.0
2319,4.529296875,72,25.0,0.0
2320,4.53125,72,44.0,0.0
2321,4.533203125,72,49.0,0.0
2322,4.53515625,72,56.0,0.0
2323,4.537109375,72,83.0,0.0
2324,4.5390625,72,104.0,0.0
2325,4.541015625,72,122.0,0.0
2326,4.54296875,72,112.0,33552.0
2327,4.544921875,72,84.0,0.0
2328,4.546875,72,83.0,0.0
2329,4.548828125,72,105.0,0.0
2330,4.55078125,72,118.0,0.0
2331,4.552734375,72,100.0,0.0
2332,4.5546875,72,86.0,0.0
2333,4.556640625,72,82.0,0.0
2334,4.55859375,72,84.0,0.0
2335,4.560546875,72,90.0,0.0
2336,4.5625,73,84.0,0.0
2337,4.564453125,73,65.0,0.0
2338,4.56640625,73,60.0,0.0
2339,4.568359375,73,80.0,0.0
2340,4.5703125,73,93.0,0.0
2341,4.572265625,73,84.0,0.0
2342,4.57421875,73,58.0,0.0
2343,4.576171875,73,41.0,0.0
2344,4.578125,73,36.0,0.0
2345,4.580078125,73,32.0,0.0
2346,4.58203125,73,32.0,0.0
2347,4.583984375,73,42.0,0.0
2348,4.5859375,73,41.0,0.0
2349,4.587890625,73,27.0,0.0
2350,4.58984375,73,20.0,0.0
2351,4.591796875,73,25.0,0.0
2352,4.59375,73,39.0,0.0
2353,4.595703125,73,42.0,0.0
2354,4.59765625,73,45.0,0.0
2355,4.599609375,73,58.0,0.0
2356,4.6015625,73,82.0,0.0
2357,4.603515625,73,104.0,0.0
2358,4.60546875,73,105.0,0.0
2359,4.607421875,73,88.0,0.0
2360,4.609375,73,69.0,0.0
2361,4.611328125,73,64.0,0.0
2362,4.61328125,73,68.0,0.0
2363,4.615234375,73,76.0,0.0
2364,4.6171875,73,88.0,0.0
2365,4.619140625,73,99.0,0.0
2366,4.62109375,73,75.0,0.0
2367,4.623046875,73,66.0,0.0
2368,4.625,74,83.0,0.0
2369,4.626953125,74,81.0,0.0
2370,4.62890625,74,66.0,0.0
2371,4.630859375,74,51.0,0.0
2372,4.6328125,74,40.0,0.0
2373,4.634765625,74,38.0,0.0
2374,4.63671875,74,43.0,0.0
2375,4.638671875,74,42.0,0.0
2376,4.640625,74,34.0,0.0
2377,4.642578125,74,33.0,0.0
2378,4.64453125,74,41.0,0.0
2379,4.646484375,74,61.0,0.0
2380,4.6484375,74,57.0,0.0
2381,4.650390625,74,21.0,0.0
2382,4.65234375,74,3.0,0.0
2383,4.654296875,74,10.0,0.0
2384,4.65625,74,12.0,0.0
2385,4.658203125,74,9.0,0.0
2386,4.66015625,74,11.0,0.0
2387,4.662109375,74,5.0,0.0
2388,4.6640625,74,-7.0,0.0
2389,4.666015625,74,-7.0,0.0
2390,4.66796875,74,17.0,0.0
2391,4.669921875,74,37.0,0.0
2392,4.671875,74,36.0,0.0
2393,4.673828125,74,26.0,0.0
2394,4.67578125,74,32.0,0.0
2395,4.677734375,74,44.0,0.0
2396,4.6796875,74,52.0,0.0
2397,4.681640625,74,49.0,0.0
2398,4.68359375,74,50.0,0.0
2399,4.685546875,74,52.0,0.0
2400,4.6875,75,41.0,0.0
2401,4.689453125,75,22.0,0.0
2402,4.69140625,75,10.0,0.0
2403,4.693359375,75,11.0,0.0
2404,4.6953125,75,23.0,0.0
2405,4.697265625,75,41.0,0.0
2406,4.69921875,75,53.0,0.0
2407,4.701171875,75,40.0,0.0
2408,4.703125,75,34.0,0.0
2409,4.705078125,75,36.0,0.0
2410,4.70703125,75,38.0,0.0
2411,4.708984375,75,36.0,0.0
2412,4.7109375,75,29.0,0.0
2413,4.712890625,75,16.0,0.0
2414,4.71484375,75,17.0,0.0
2415,4.716796875,75,44.0,0.0
2416,4.71875,75,66.0,0.0
2417,4.720703125,75,74.0,0.0
2418,4.72265625,75,92.0,0.0
2419,4.724609375,75,117.0,0.0
2420,4.7265625,75,130.0,0.0
2421,4.728515625,75,125.0,0.0
2422,4.73046875,75,124.0,0.0
2423,4.732421875,75,114.0,0.0
2424,4.734375,75,104.0,0.0
2425,4.736328125,75,96.0,0.0
2426,4.73828125,75,87.0,0.0
2427,4.740234375,75,91.0,0.0
2428,4.7421875,75,105.0,0.0
2429,4.744140625,75,102.0,0.0
2430,4.74609375,75,96.0,0.0
2431,4.748046875,75,98.0,0.0
2432,4.75,76,84.0,0.0
2433,4.751953125,76,68.0,0.0
2434,4.75390625,76,50.0,0.0
2435,4.755859375,76,34.0,0.0
2436,4.7578125,76,24.0,0.0
2437,4.759765625,76,21.0,0.0
2438,4.76171875,76,20.0,0.0
2439,4.763671875,76,23.0,0.0
2440,4.765625,76,18.0,0.0
2441,4.767578125,76,22.0,0.0
2442,4.76953125,76,32.0,0.0
2443,4.771484375,76,24.0,0.0
2444,4.7734375,76,19.0,0.0
2445,4.775390625,76,17.0,0.0
2446,4.77734375,76,-7.0,0.0
2447,4.779296875,76,-25.0,0.0
2448,4.78125,76,-23.0,0.0
2449,4.783203125,76,-38.0,0.0
2450,4.78515625,76,-53.0,0.0
2451,4.787109375,76,-42.0,0.0
2452,4.7890625,76,-23.0,0.0
2453,4.791015625,76,-12.0,33552.0
2454,4.79296875,76,-10.0,0.0
2455,4.794921875,76,-7.0,0.0
2456,4.796875,76,-4.0,0.0
2457,4.798828125,76,11.0,0.0
2458,4.80078125,76,42.0,0.0
2459,4.802734375,76,40.0,0.0
2460,4.8046875,76,10.0,0.0
2461,4.806640625,76,10.0,0.0
2462,4.80859375,76,38.0,0.0
2463,4.810546875,76,48.0,0.0
2464,4.8125,77,49.0,0.0
2465,4.814453125,77,61.0,0.0
2466,4.81640625,77,74.0,0.0
2467,4.818359375,77,57.0,0.0
2468,4.8203125,77,24.0,0.0
2469,4.822265625,77,9.0,0.0
2470,4.82421875,77,24.0,0.0
2471,4.826171875,77,48.0,0.0
2472,4.828125,77,58.0,0.0
2473,4.830078125,77,59.0,0.0
2474,4.83203125,77,88.0,0.0
2475,4.833984375,77,102.0,0.0
2476,4.8359375,77,83.0,0.0
2477,4.837890625,77,66.0,0.0
2478,4.83984375,77,69.0,0.0
2479,4.841796875,77,83.0,0.0
2480,4.84375,77,89.0,0.0
2481,4.845703125,77,89.0,0.0
2482,4.84765625,77,92.0,0.0
2483,4.849609375,77,105.0,0.0
2484,4.8515625,77,93.0,0.0
2485,4.853515625,77,64.0,0.0
2486,4.85546875,77,53.0,0.0
2487,4.857421875,77,60.0,0.0
2488,4.859375,77,72.0,0.0
2489,4.861328125,77,75.0,0.0
2490,4.86328125,77,75.0,0.0
2491,4.865234375,77,68.0,0.0
2492,4.8671875,77,66.0,0.0
2493,4.869140625,77,54.0,0.0
2494,4.87109375,77,40.0,0.0
2495,4.873046875,77,39.0,0.0
2496,4.875,78,50.0,0.0
2497,4.876953125,78,52.0,0.0
2498,4.87890625,78,37.0,0.0
2499,4.880859375,78,6.0,0.0
2500,4.8828125,78,-7.0,0.0
2501,4.884765625,78,-6.0,0.0
2502,4.88671875,78,-7.0,0.0
2503,4.888671875,78,-9.0,0.0
2504,4.890625,78,-3.0,0.0
2505,4.892578125,78,-4.0,0.0
2506,4.89453125,78,4.0,0.0
2507,4.896484375,78,9.0,0.0
2508,4.8984375,78,20.0,0.0
2509,4.900390625,78,29.0,0.0
2510,4.90234375,78,32.0,0.0
2511,4.904296875,78,40.0,0.0
2512,4.90625,78,55.0,0.0
2513,4.908203125,78,57.0,0.0
2514,4.91015625,78,52.0,0.0
2515,4.912109375,78,49.0,0.0
2516,4.9140625,78,52.0,0.0
2517,4.916015625,78,71.0,0.0
2518,4.91796875,78,89.0,0.0
2519,4.919921875,78,65.0,0.0
2520,4.921875,78,26.0,0.0
2521,4.923828125,78,24.0,0.0
2522,4.92578125,78,42.0,0.0
2523,4.927734375,78,58.0,0.0
2524,4.9296875,78,64.0,0.0
2525,4.931640625,78,57.0,0.0
2526,4.93359375,78,49.0,0.0
2527,4.935546875,78,54.0,0.0
2528,4.9375,79,59.0,0.0
2529,4.939453125,79,67.0,0.0
2530,4.94140625,79,85.0,0.0
2531,4.943359375,79,89.0,0.0
2532,4.9453125,79,86.0,0.0
2533,4.947265625,79,82.0,0.0
2534,4.94921875,79,82.0,0.0
2535,4.951171875,79,87.0,0.0
2536,4.953125,79,90.0,0.0
2537,4.955078125,79,89.0,0.0
2538,4.95703125,79,86.0,0.0
2539,4.958984375,79,82.0,0.0
2540,4.9609375,79,57.0,0.0
2541,4.962890625,79,23.0,0.0
2542,4.96484375,79,3.0,0.0
2543,4.966796875,79,8.0,0.0
2544,4.96875,79,23.0,0.0
2545,4.970703125,79,32.0,0.0
2546,4.97265625,79,21.0,0.0
2547,4.974609375,79,10.0,0.0
2548,4.9765625,79,6.0,0.0
2549,4.978515625,79,8.0,0.0
2550,4.98046875,79,-3.0,0.0
2551,4.982421875,79,-28.0,0.0
2552,4.984375,79,-23.0,0.0
2553,4.986328125,79,7.0,0.0
2554,4.98828125,79,18.0,0.0
2555,4.990234375,79,2.0,0.0
2556,4.9921875,79,3.0,0.0
2557,4.994140625,79,26.0,0.0
2558,4.99609375,79,54.0,0.0
2559,4.998046875,79,65.0,0.0
2560,5.0,80,64.0,0.0
2561,5.001953125,80,44.0,0.0
2562,5.00390625,80,23.0,0.0
2563,5.005859375,80,19.0,0.0
2564,5.0078125,80,10.0,0.0
2565,5.009765625,80,-10.0,0.0
2566,5.01171875,80,-24.0,0.0
2567,5.013671875,80,-10.0,0.0
2568,5.015625,80,9.0,0.0
2569,5.017578125,80,24.0,0.0
2570,5.01953125,80,25.0,0.0
2571,5.021484375,80,38.0,0.0
2572,5.0234375,80,65.0,0.0
2573,5.025390625,80,71.0,0.0
2574,5.02734375,80,51.0,0.0
2575,5.029296875,80,26.0,0.0
2576,5.03125,80,23.0,0.0
2577,5.033203125,80,25.0,0.0
2578,5.03515625,80,25.0,0.0
2579,5.037109375,80,32.0,0.0
2580,5.0390625,80,45.0,0.0
2581,5.041015625,80,69.0,0.0
2582,5.04296875,80,88.0,0.0
2583,5.044921875,80,85.0,0.0
2584,5.046875,80,77.0,0.0
2585,5.048828125,80,75.0,0.0
2586,5.05078125,80,73.0,0.0
2587,5.052734375,80,69.0,0.0
2588,5.0546875,80,74.0,0.0
2589,5.056640625,80,86.0,0.0
2590,5.05859375,80,85.0,0.0
2591,5.060546875,80,80.0,0.0
2592,5.0625,81,81.0,0.0
2593,5.064453125,81,91.0,0.0
2594,5.06640625,81,117.0,0.0
2595,5.068359375,81,130.0,0.0
2596,5.0703125,81,118.0,0.0
2597,5.072265625,81,98.0,0.0
2598,5.07421875,81,91.0,0.0
2599,5.076171875,81,80.0,0.0
2600,5.078125,81,58.0,0.0
2601,5.080078125,81,51.0,0.0
2602,5.08203125,81,50.0,0.0
2603,5.083984375,81,64.0,0.0
2604,5.0859375,81,80.0,0.0
2605,5.087890625,81,65.0,0.0
2606,5.08984375,81,28.0,0.0
2607,5.091796875,81,3.0,0.0
2608,5.09375,81,-8.0,0.0
2609,5.095703125,81,-3.0,0.0
2610,5.09765625,81,17.0,0.0
2611,5.099609375,81,20.0,0.0
2612,5.1015625,81,12.0,0.0
2613,5.103515625,81,27.0,0.0
2614,5.10546875,81,54.0,0.0
2615,5.107421875,81,73.0,0.0
2616,5.109375,81,102.0,0.0
2617,5.111328125,81,140.0,0.0
2618,5.11328125,81,163.0,0.0
2619,5.115234375,81,154.0,0.0
2620,5.1171875,81,144.0,0.0
2621,5.119140625,81,144.0,0.0
2622,5.12109375,81,135.0,0.0
2623,5.123046875,81,129.0,0.0
2624,5.125,82,130.0,0.0
2625,5.126953125,82,133.0,0.0
2626,5.12890625,82,118.0,0.0
2627,5.130859375,82,84.0,0.0
2628,5.1328125,82,61.0,0.0
2629,5.134765625,82,67.0,0.0
2630,5.13671875,82,76.0,0.0
2631,5.138671875,82,80.0,0.0
2632,5.140625,82,71.0,0.0
2633,5.142578125,82,60.0,0.0
2634,5.14453125,82,57.0,0.0
2635,5.146484375,82,56.0,0.0
2636,5.1484375,82,48.0,0.0
2637,5.150390625,82,56.0,0.0
2638,5.15234375,82,83.0,0.0
2639,5.154296875,82,91.0,0.0
2640,5.15625,82,72.0,0.0
2641,5.158203125,82,44.0,0.0
2642,5.16015625,82,44.0,0.0
2643,5.162109375,82,59.0,0.0
2644,5.1640625,82,77.0,0.0
2645,5.166015625,82,82.0,0.0
2646,5.16796875,82,82.0,0.0
2647,5.169921875,82,85.0,0.0
2648,5.171875,82,76.0,0.0
2649,5.173828125,82,68.0,0.0
2650,5.17578125,82,66.0,0.0
2651,5.177734375,82,59.0,0.0
2652,5.1796875,82,55.0,0.0
2653,5.181640625,82,48.0,0.0
2654,5.18359375,82,38.0,0.0
2655,5.185546875,82,28.0,0.0
2656,5.1875,83,17.0,0.0
2657,5.189453125,83,10.0,0.0
2658,5.19140625,83,19.0,0.0
2659,5.193359375,83,44.0,0.0
2660,5.1953125,83,54.0,0.0
2661,5.197265625,83,53.0,0.0
2662,5.19921875,83,65.0,0.0
2663,5.201171875,83,82.0,0.0
2664,5.203125,83,88.0,0.0
2665,5.205078125,83,91.0,0.0
2666,5.20703125,83,98.0,0.0
2667,5.208984375,83,89.0,0.0
2668,5.2109375,83,69.0,0.0
2669,5.212890625,83,61.0,0.0
2670,5.21484375,83,64.0,0.0
2671,5.216796875,83,45.0,0.0
2672,5.21875,83,25.0,0.0
2673,5.220703125,83,24.0,0.0
2674,5.22265625,83,41.0,0.0
2675,5.224609375,83,58.0,0.0
2676,5.2265625,83,67.0,33552.0
2677,5.228515625,83,76.0,0.0
2678,5.23046875,83,77.0,0.0
2679,5.232421875,83,69.0,0.0
2680,5.234375,83,54.0,0.0
2681,5.236328125,83,58.0,0.0
2682,5.23828125,83,76.0,0.0
2683,5.240234375,83,82.0,0.0
2684,5.2421875,83,66.0,0.0
2685,5.244140625,83,44.0,0.0
2686,5.24609375,83,48.0,0.0
2687,5.248046875,83,60.0,0.0
2688,5.25,84,84.0,0.0
2689,5.251953125,84,90.0,0.0
2690,5.25390625,84,88.0,0.0
2691,5.255859375,84,86.0,0.0
2692,5.2578125,84,86.0,0.0
2693,5.259765625,84,82.0,0.0
2694,5.26171875,84,84.0,0.0
2695,5.263671875,84,103.0,0.0
2696,5.265625,84,124.0,0.0
2697,5.267578125,84,130.0,0.0
2698,5.26953125,84,104.0,0.0
2699,5.271484375,84,74.0,0.0
2700,5.2734375,84,64.0,0.0
2701,5.275390625,84,44.0,0.0
2702,5.27734375,84,28.0,0.0
2703,5.279296875,84,36.0,0.0
2704,5.28125,84,32.0,0.0
2705,5.283203125,84,20.0,0.0
2706,5.28515625,84,27.0,0.0
2707,5.287109375,84,27.0,33552.0
2708,5.2890625,84,6.0,0.0
2709,5.291015625,84,-9.0,0.0
2710,5.29296875,84,-20.0,0.0
2711,5.294921875,84,-44.0,0.0
2712,5.296875,84,-74.0,0.0
2713,5.298828125,84,-61.0,0.0
2714,5.30078125,84,-40.0,0.0
2715,5.302734375,84,-56.0,0.0
2716,5.3046875,84,-77.0,0.0
2717,5.306640625,84,-72.0,0.0
2718,5.30859375,84,-49.0,0.0
2719,5.310546875,84,-40.0,0.0
2720,5.3125,85,-57.0,0.0
2721,5.314453125,85,-81.0,0.0
2722,5.31640625,85,-85.0,0.0
2723,5.318359375,85,-68.0,0.0
2724,5.3203125,85,-50.0,0.0
2725,5.322265625,85,-42.0,0.0
2726,5.32421875,85,-34.0,0.0
2727,5.326171875,85,-22.0,0.0
2728,5.328125,85,-41.0,0.0
2729,5.330078125,85,-66.0,0.0
2730,5.33203125,85,-71.0,0.0
2731,5.333984375,85,-81.0,0.0
2732,5.3359375,85,-87.0,0.0
2733,5.337890625,85,-76.0,0.0
2734,5.33984375,85,-56.0,0.0
2735,5.341796875,85,-35.0,0.0
2736,5.34375,85,-6.0,0.0
2737,5.345703125,85,24.0,0.0
2738,5.34765625,85,39.0,0.0
2739,5.349609375,85,25.0,0.0
2740,5.3515625,85,11.0,0.0
2741,5.353515625,85,-6.0,0.0
2742,5.35546875,85,-25.0,0.0
2743,5.357421875,85,-34.0,0.0
2744,5.359375,85,-33.0,0.0
2745,5.361328125,85,-10.0,0.0
2746,5.36328125,85,2.0,0.0
2747,5.365234375,85,-3.0,0.0
2748,5.3671875,85,5.0,0.0
2749,5.369140625,85,17.0,0.0
2750,5.37109375,85,25.0,0.0
2751,5.373046875,85,32.0,0.0
2752,5.375,86,23.0,0.0
2753,5.376953125,86,3.0,0.0
2754,5.37890625,86,-11.0,0.0
2755,5.380859375,86,0.0,0.0
2756,5.3828125,86,38.0,0.0
2757,5.384765625,86,35.0,0.0
2758,5.38671875,86,-9.0,0.0
2759,5.388671875,86,-44.0,0.0
2760,5.390625,86,-39.0,0.0
2761,5.392578125,86,-29.0,0.0
2762,5.39453125,86,-41.0,0.0
2763,5.396484375,86,-44.0,0.0
2764,5.3984375,86,-46.0,0.0
2765,5.400390625,86,-37.0,0.0
2766,5.40234375,86,-8.0,0.0
2767,5.404296875,86,-6.0,0.0
2768,5.40625,86,-11.0,0.0
2769,5.408203125,86,-9.0,0.0
2770,5.41015625,86,-17.0,0.0
2771,5.412109375,86,-13.0,0.0
2772,5.4140625,86,6.0,0.0
2773,5.416015625,86,32.0,0.0
2774,5.41796875,86,49.0,0.0
2775,5.419921875,86,82.0,0.0
2776,5.421875,86,100.0,0.0
2777,5.423828125,86,86.0,0.0
2778,5.42578125,86,69.0,0.0
2779,5.427734375,86,59.0,0.0
2780,5.4296875,86,49.0,0.0
2781,5.431640625,86,39.0,0.0
2782,5.43359375,86,45.0,0.0
2783,5.435546875,86,50.0,0.0
2784,5.4375,87,28.0,0.0
2785,5.439453125,87,8.0,0.0
2786,5.44140625,87,32.0,0.0
2787,5.443359375,87,64.0,0.0
2788,5.4453125,87,52.0,0.0
2789,5.447265625,87,20.0,0.0
2790,5.44921875,87,-2.0,0.0
2791,5.451171875,87,-5.0,0.0
2792,5.453125,87,2.0,0.0
2793,5.455078125,87,18.0,0.0
2794,5.45703125,87,44.0,0.0
2795,5.458984375,87,59.0,0.0
2796,5.4609375,87,56.0,0.0
2797,5.462890625,87,32.0,0.0
2798,5.46484375,87,3.0,0.0
2799,5.466796875,87,1.0,0.0
2800,5.46875,87,21.0,0.0
2801,5.470703125,87,35.0,0.0
2802,5.47265625,87,33.0,0.0
2803,5.474609375,87,21.0,0.0
2804,5.4765625,87,12.0,0.0
2805,5.478515625,87,16.0,0.0
2806,5.48046875,87,35.0,0.0
2807,5.482421875,87,41.0,0.0
2808,5.484375,87,34.0,0.0
2809,5.486328125,87,28.0,0.0
2810,5.48828125,87,20.0,0.0
2811,5.490234375,87,18.0,0.0
2812,5.4921875,87,38.0,0.0
2813,5.494140625,87,48.0,0.0
2814,5.49609375,87,41.0,0.0
2815,5.498046875,87,36.0,0.0
2816,5.5,88,48.0,0.0
2817,5.501953125,88,58.0,0.0
2818,5.50390625,88,60.0,0.0
2819,5.505859375,88,42.0,0.0
2820,5.5078125,88,16.0,0.0
2821,5.509765625,88,11.0,0.0
2822,5.51171875,88,28.0,0.0
2823,5.513671875,88,51.0,0.0
2824,5.515625,88,70.0,0.0
2825,5.517578125,88,83.0,0.0
2826,5.51953125,88,80.0,0.0
2827,5.521484375,88,73.0,0.0
2828,5.5234375,88,70.0,0.0
2829,5.525390625,88,58.0,0.0
2830,5.52734375,88,42.0,0.0
2831,5.529296875,88,39.0,0.0
2832,5.53125,88,38.0,0.0
2833,5.533203125,88,41.0,0.0
2834,5.53515625,88,50.0,0.0
2835,5.537109375,88,56.0,0.0
2836,5.5390625,88,70.0,0.0
2837,5.541015625,88,91.0,0.0
2838,5.54296875,88,99.0,0.0
2839,5.544921875,88,84.0,0.0
2840,5.546875,88,72.0,0.0
2841,5.548828125,88,60.0,0.0
2842,5.55078125,88,49.0,0.0
2843,5.552734375,88,42.0,0.0
2844,5.5546875,88,28.0,0.0
2845,5.556640625,88,9.0,0.0
2846,5.55859375,88,13.0,0.0
2847,5.560546875,88,52.0,0.0
2848,5.5625,89,85.0,0.0
2849,5.564453125,89,100.0,0.0
2850,5.56640625,89,104.0,0.0
2851,5.568359375,89,102.0,0.0
2852,5.5703125,89,102.0,0.0
2853,5.572265625,89,83.0,0.0
2854,5.57421875,89,51.0,0.0
2855,5.576171875,89,34.0,0.0
2856,5.578125,89,53.0,0.0
2857,5.580078125,89,74.0,0.0
2858,5.58203125,89,69.0,0.0
2859,5.583984375,89,42.0,0.0
2860,5.5859375,89,25.0,0.0
2861,5.587890625,89,41.0,0.0
2862,5.58984375,89,65.0,0.0
2863,5.591796875,89,61.0,0.0
2864,5.59375,89,27.0,0.0
2865,5.595703125,89,4.0,0.0
2866,5.59765625,89,11.0,0.0
2867,5.599609375,89,38.0,0.0
2868,5.6015625,89,50.0,0.0
2869,5.603515625,89,51.0,0.0
2870,5.60546875,89,54.0,0.0
2871,5.607421875,89,77.0,0.0
2872,5.609375,89,97.0,0.0
2873,5.611328125,89,74.0,0.0
2874,5.61328125,89,23.0,0.0
2875,5.615234375,89,-2.0,0.0
2876,5.6171875,89,-2.0,0.0
2877,5.619140625,89,-7.0,0.0
2878,5.62109375,89,-21.0,0.0
2879,5.623046875,89,-21.0,0.0
2880,5.625,90,-12.0,0.0
2881,5.626953125,90,-9.0,0.0
2882,5.62890625,90,-4.0,0.0
2883,5.630859375,90,2.0,0.0
2884,5.6328125,90,8.0,0.0
2885,5.634765625,90,17.0,0.0
2886,5.63671875,90,8.0,0.0
2887,5.638671875,90,-7.0,0.0
2888,5.640625,90,-12.0,0.0
2889,5.642578125,90,-10.0,0.0
2890,5.64453125,90,-1.0,0.0
2891,5.646484375,90,16.0,0.0
2892,5.6484375,90,34.0,0.0
2893,5.650390625,90,41.0,0.0
2894,5.65234375,90,39.0,0.0
2895,5.654296875,90,36.0,0.0
2896,5.65625,90,4.0,0.0
2897,5.658203125,90,-35.0,0.0
2898,5.66015625,90,-46.0,0.0
2899,5.662109375,90,-33.0,0.0
2900,5.6640625,90,-2.0,0.0
2901,5.666015625,90,24.0,0.0
2902,5.66796875,90,37.0,0.0
2903,5.669921875,90,38.0,0.0
2904,5.671875,90,24.0,0.0
2905,5.673828125,90,16.0,0.0
2906,5.67578125,90,32.0,0.0
2907,5.677734375,90,57.0,0.0
2908,5.6796875,90,88.0,0.0
2909,5.681640625,90,98.0,0.0
2910,5.68359375,90,84.0,0.0
2911,5.685546875,90,90.0,0.0
2912,5.6875,91,72.0,0.0
2913,5.689453125,91,32.0,0.0
2914,5.69140625,91,34.0,0.0
2915,5.693359375,91,43.0,0.0
2916,5.6953125,91,26.0,0.0
2917,5.697265625,91,2.0,0.0
2918,5.69921875,91,16.0,0.0
2919,5.701171875,91,48.0,0.0
2920,5.703125,91,61.0,0.0
2921,5.705078125,91,73.0,0.0
2922,5.70703125,91,101.0,0.0
2923,5.708984375,91,125.0,0.0
2924,5.7109375,91,122.0,0.0
2925,5.712890625,91,88.0,0.0
2926,5.71484375,91,55.0,0.0
2927,5.716796875,91,43.0,0.0
2928,5.71875,91,24.0,0.0
2929,5.720703125,91,10.0,0.0
2930,5.72265625,91,26.0,0.0
2931,5.724609375,91,33.0,0.0
2932,5.7265625,91,20.0,0.0
2933,5.728515625,91,0.0,0.0
2934,5.73046875,91,-7.0,0.0
2935,5.732421875,91,3.0,0.0
2936,5.734375,91,24.0,0.0
2937,5.736328125,91,21.0,0.0
2938,5.73828125,91,-2.0,0.0
2939,5.740234375,91,16.0,0.0
2940,5.7421875,91,64.0,0.0
2941,5.744140625,91,88.0,0.0
2942,5.74609375,91,64.0,0.0
2943,5.748046875,91,25.0,0.0
2944,5.75,92,12.0,0.0
2945,5.751953125,92,32.0,0.0
2946,5.75390625,92,49.0,0.0
2947,5.755859375,92,32.0,0.0
2948,5.7578125,92,-5.0,0.0
2949,5.759765625,92,-34.0,0.0
2950,5.76171875,92,-51.0,0.0
2951,5.763671875,92,-43.0,0.0
2952,5.765625,92,-2.0,0.0
2953,5.767578125,92,50.0,0.0
2954,5.76953125,92,69.0,0.0
2955,5.771484375,92,54.0,0.0
2956,5.7734375,92,57.0,0.0
2957,5.775390625,92,75.0,0.0
2958,5.77734375,92,64.0,0.0
2959,5.779296875,92,60.0,0.0
2960,5.78125,92,81.0,0.0
2961,5.783203125,92,81.0,0.0
2962,5.78515625,92,75.0,0.0
2963,5.787109375,92,84.0,0.0
2964,5.7890625,92,82.0,0.0
2965,5.791015625,92,66.0,0.0
2966,5.79296875,92,44.0,0.0
2967,5.794921875,92,34.0,0.0
2968,5.796875,92,34.0,0.0
2969,5.798828125,92,26.0,0.0
2970,5.80078125,92,26.0,0.0
2971,5.802734375,92,41.0,0.0
2972,5.8046875,92,49.0,0.0
2973,5.806640625,92,64.0,0.0
2974,5.80859375,92,92.0,0.0
2975,5.810546875,92,119.0,0.0
2976,5.8125,93,122.0,0.0
2977,5.814453125,93,125.0,0.0
2978,5.81640625,93,123.0,0.0
2979,5.818359375,93,120.0,0.0
2980,5.8203125,93,108.0,0.0
2981,5.822265625,93,74.0,0.0
2982,5.82421875,93,27.0,0.0
2983,5.826171875,93,6.0,0.0
2984,5.828125,93,3.0,0.0
2985,5.830078125,93,6.0,0.0
2986,5.83203125,93,0.0,0.0
2987,5.833984375,93,-5.0,0.0
2988,5.8359375,93,11.0,0.0
2989,5.837890625,93,28.0,0.0
2990,5.83984375,93,40.0,0.0
2991,5.841796875,93,59.0,0.0
2992,5.84375,93,92.0,0.0
2993,5.845703125,93,102.0,0.0
2994,5.84765625,93,57.0,33552.0
2995,5.849609375,93,34.0,0.0
2996,5.8515625,93,8.0,0.0
2997,5.853515625,93,22.0,0.0
2998,5.85546875,93,50.0,0.0
2999,5.857421875,93,53.0,0.0
3000,5.859375,93,50.0,0.0
3001,5.861328125,93,38.0,0.0
3002,5.86328125,93,39.0,0.0
3003,5.865234375,93,53.0,0.0
3004,5.8671875,93,71.0,0.0
3005,5.869140625,93,97.0,0.0
3006,5.87109375,93,106.0,0.0
3007,5.873046875,93,83.0,0.0
3008,5.875,94,41.0,0.0
3009,5.876953125,94,44.0,0.0
3010,5.87890625,94,71.0,0.0
3011,5.880859375,94,58.0,0.0
3012,5.8828125,94,37.0,0.0
3013,5.884765625,94,27.0,0.0
3014,5.88671875,94,26.0,0.0
3015,5.888671875,94,38.0,0.0
3016,5.890625,94,53.0,0.0
3017,5.892578125,94,43.0,0.0
3018,5.89453125,94,40.0,0.0
3019,5.896484375,94,67.0,0.0
3020,5.8984375,94,64.0,0.0
3021,5.900390625,94,34.0,0.0
3022,5.90234375,94,26.0,0.0
3023,5.904296875,94,45.0,0.0
3024,5.90625,94,54.0,0.0
3025,5.908203125,94,34.0,0.0
3026,5.91015625,94,36.0,0.0
3027,5.912109375,94,65.0,0.0
3028,5.9140625,94,80.0,0.0
3029,5.916015625,94,67.0,0.0
3030,5.91796875,94,34.0,0.0
3031,5.919921875,94,20.0,0.0
3032,5.921875,94,45.0,0.0
3033,5.923828125,94,69.0,0.0
3034,5.92578125,94,54.0,0.0
3035,5.927734375,94,-3.0,0.0
3036,5.9296875,94,-49.0,0.0
3037,5.931640625,94,-45.0,0.0
3038,5.93359375,94,-11.0,0.0
3039,5.935546875,94,36.0,0.0
3040,5.9375,95,59.0,0.0
3041,5.939453125,95,64.0,0.0
3042,5.94140625,95,71.0,0.0
3043,5.943359375,95,58.0,0.0
3044,5.9453125,95,53.0,0.0
3045,5.947265625,95,72.0,0.0
3046,5.94921875,95,80.0,0.0
3047,5.951171875,95,76.0,0.0
3048,5.953125,95,53.0,0.0
3049,5.955078125,95,8.0,0.0
3050,5.95703125,95,-22.0,0.0
3051,5.958984375,95,-36.0,0.0
3052,5.9609375,95,-43.0,0.0
3053,5.962890625,95,-44.0,0.0
3054,5.96484375,95,-28.0,0.0
3055,5.966796875,95,-12.0,0.0
3056,5.96875,95,12.0,0.0
3057,5.970703125,95,90.0,33552.0
3058,5.97265625,95,112.0,0.0
3059,5.974609375,95,87.0,0.0
3060,5.9765625,95,33.0,0.0
3061,5.978515625,95,-7.0,0.0
3062,5.98046875,95,-21.0,0.0
3063,5.982421875,95,-24.0,0.0
3064,5.984375,95,-44.0,0.0
3065,5.986328125,95,-50.0,0.0
3066,5.98828125,95,-40.0,0.0
3067,5.990234375,95,-28.0,0.0
3068,5.9921875,95,2.0,0.0
3069,5.994140625,95,32.0,0.0
3070,5.99609375,95,18.0,0.0
3071,5.998046875,95,-22.0,0.0
3072,6.0,96,-58.0,0.0
3073,6.001953125,96,-82.0,0.0
3074,6.00390625,96,-82.0,0.0
3075,6.005859375,96,-74.0,0.0
3076,6.0078125,96,-58.0,0.0
3077,6.009765625,96,-26.0,0.0
3078,6.01171875,96,-10.0,0.0
3079,6.013671875,96,-12.0,0.0
3080,6.015625,96,-28.0,0.0
3081,6.017578125,96,-44.0,0.0
3082,6.01953125,96,-58.0,0.0
3083,6.021484375,96,-71.0,0.0
3084,6.0234375,96,-83.0,0.0
3085,6.025390625,96,-87.0,0.0
3086,6.02734375,96,-66.0,0.0
3087,6.029296875,96,-33.0,0.0
3088,6.03125,96,-7.0,0.0
3089,6.033203125,96,10.0,0.0
3090,6.03515625,96,32.0,0.0
3091,6.037109375,96,2.0,0.0
3092,6.0390625,96,-29.0,0.0
3093,6.041015625,96,-8.0,0.0
3094,6.04296875,96,35.0,0.0
3095,6.044921875,96,25.0,0.0
3096,6.046875,96,-13.0,0.0
3097,6.048828125,96,-24.0,0.0
3098,6.05078125,96,-3.0,0.0
3099,6.052734375,96,6.0,0.0
3100,6.0546875,96,10.0,0.0
3101,6.056640625,96,36.0,0.0
3102,6.05859375,96,56.0,0.0
3103,6.060546875,96,64.0,0.0
3104,6.0625,97,52.0,0.0
3105,6.064453125,97,20.0,0.0
3106,6.06640625,97,4.0,0.0
3107,6.068359375,97,27.0,0.0
3108,6.0703125,97,69.0,0.0
3109,6.072265625,97,98.0,0.0
3110,6.07421875,97,105.0,0.0
3111,6.076171875,97,107.0,0.0
3112,6.078125,97,105.0,0.0
3113,6.080078125,97,104.0,0.0
3114,6.08203125,97,85.0,0.0
3115,6.083984375,97,43.0,0.0
3116,6.0859375,97,32.0,0.0
3117,6.087890625,97,48.0,0.0
3118,6.08984375,97,43.0,0.0
3119,6.091796875,97,50.0,0.0
3120,6.09375,97,84.0,0.0
3121,6.095703125,97,128.0,0.0
3122,6.09765625,97,156.0,0.0
3123,6.099609375,97,160.0,0.0
3124,6.1015625,97,132.0,0.0
3125,6.103515625,97,130.0,0.0
3126,6.10546875,97,160.0,0.0
3127,6.107421875,97,165.0,0.0
3128,6.109375,97,148.0,0.0
3129,6.111328125,97,146.0,0.0
3130,6.11328125,97,154.0,0.0
3131,6.115234375,97,150.0,0.0
3132,6.1171875,97,141.0,0.0
3133,6.119140625,97,144.0,0.0
3134,6.12109375,97,144.0,0.0
3135,6.123046875,97,145.0,0.0
3136,6.125,98,157.0,0.0
3137,6.126953125,98,163.0,0.0
3138,6.12890625,98,137.0,0.0
3139,6.130859375,98,114.0,0.0
3140,6.1328125,98,100.0,0.0
3141,6.134765625,98,99.0,0.0
3142,6.13671875,98,104.0,0.0
3143,6.138671875,98,115.0,0.0
3144,6.140625,98,113.0,0.0
3145,6.142578125,98,112.0,0.0
3146,6.14453125,98,115.0,0.0
3147,6.146484375,98,117.0,0.0
3148,6.1484375,98,118.0,0.0
3149,6.150390625,98,105.0,0.0
3150,6.15234375,98,91.0,0.0
3151,6.154296875,98,64.0,0.0
3152,6.15625,98,18.0,0.0
3153,6.158203125,98,2.0,0.0
3154,6.16015625,98,10.0,0.0
3155,6.162109375,98,7.0,0.0
3156,6.1640625,98,1.0,0.0
3157,6.166015625,98,35.0,0.0
3158,6.16796875,98,73.0,0.0
3159,6.169921875,98,70.0,0.0
3160,6.171875,98,52.0,0.0
3161,6.173828125,98,51.0,0.0
3162,6.17578125,98,48.0,0.0
3163,6.177734375,98,33.0,0.0
3164,6.1796875,98,37.0,0.0
3165,6.181640625,98,48.0,0.0
3166,6.18359375,98,82.0,0.0
3167,6.185546875,98,108.0,0.0
3168,6.1875,99,103.0,0.0
3169,6.189453125,99,67.0,0.0
3170,6.19140625,99,9.0,0.0
3171,6.193359375,99,-18.0,0.0
3172,6.1953125,99,-7.0,0.0
3173,6.197265625,99,21.0,0.0
3174,6.19921875,99,50.0,0.0
3175,6.201171875,99,66.0,0.0
3176,6.203125,99,69.0,0.0
3177,6.205078125,99,70.0,0.0
3178,6.20703125,99,74.0,0.0
3179,6.208984375,99,100.0,0.0
3180,6.2109375,99,139.0,0.0
3181,6.212890625,99,164.0,0.0
3182,6.21484375,99,172.0,0.0
3183,6.216796875,99,129.0,0.0
3184,6.21875,99,53.0,0.0
3185,6.220703125,99,1.0,0.0
3186,6.22265625,99,-11.0,0.0
3187,6.224609375,99,-14.0,0.0
3188,6.2265625,99,-22.0,0.0
3189,6.228515625,99,-14.0,0.0
3190,6.23046875,99,-20.0,0.0
3191,6.232421875,99,-38.0,0.0
3192,6.234375,99,-29.0,0.0
3193,6.236328125,99,-12.0,0.0
3194,6.23828125,99,-4.0,0.0
3195,6.240234375,99,8.0,0.0
3196,6.2421875,99,22.0,0.0
3197,6.244140625,99,20.0,0.0
3198,6.24609375,99,-1.0,0.0
3199,6.248046875,99,-5.0,0.0
3200,6.25,100,18.0,0.0
3201,6.251953125,100,38.0,0.0
3202,6.25390625,100,36.0,0.0
3203,6.255859375,100,23.0,0.0
3204,6.2578125,100,13.0,0.0
3205,6.259765625,100,18.0,0.0
3206,6.26171875,100,22.0,0.0
3207,6.263671875,100,29.0,0.0
3208,6.265625,100,22.0,0.0
3209,6.267578125,100,-13.0,0.0
3210,6.26953125,100,-43.0,0.0
3211,6.271484375,100,-27.0,0.0
3212,6.2734375,100,3.0,0.0
3213,6.275390625,100,8.0,0.0
3214,6.27734375,100,-9.0,0.0
3215,6.279296875,100,-37.0,0.0
3216,6.28125,100,-40.0,0.0
3217,6.283203125,100,-24.0,0.0
3218,6.28515625,100,9.0,0.0
3219,6.287109375,100,26.0,0.0
3220,6.2890625,100,8.0,0.0
3221,6.291015625,100,-26.0,0.0
3222,6.29296875,100,-52.0,0.0
3223,6.294921875,100,-54.0,0.0
3224,6.296875,100,-44.0,0.0
3225,6.298828125,100,-8.0,0.0
3226,6.30078125,100,32.0,0.0
3227,6.302734375,100,32.0,0.0
3228,6.3046875,100,1.0,0.0
3229,6.306640625,100,-4.0,0.0
3230,6.30859375,100,27.0,0.0
3231,6.310546875,100,59.0,0.0
3232,6.3125,101,59.0,0.0
3233,6.314453125,101,43.0,0.0
3234,6.31640625,101,42.0,0.0
3235,6.318359375,101,51.0,0.0
3236,6.3203125,101,55.0,0.0
3237,6.322265625,101,53.0,0.0
3238,6.32421875,101,74.0,0.0
3239,6.326171875,101,92.0,0.0
3240,6.328125,101,112.0,0.0
3241,6.330078125,101,130.0,0.0
3242,6.33203125,101,117.0,0.0
3243,6.333984375,101,81.0,0.0
3244,6.3359375,101,70.0,0.0
3245,6.337890625,101,84.0,0.0
3246,6.33984375,101,77.0,0.0
3247,6.341796875,101,73.0,0.0
3248,6.34375,101,82.0,0.0
3249,6.345703125,101,86.0,0.0
3250,6.34765625,101,66.0,0.0
3251,6.349609375,101,35.0,0.0
3252,6.3515625,101,28.0,0.0
3253,6.353515625,101,42.0,0.0
3254,6.35546875,101,39.0,0.0
3255,6.357421875,101,21.0,0.0
3256,6.359375,101,-6.0,0.0
3257,6.361328125,101,-17.0,0.0
3258,6.36328125,101,7.0,0.0
3259,6.365234375,101,37.0,0.0
3260,6.3671875,101,36.0,0.0
3261,6.369140625,101,5.0,0.0
3262,6.37109375,101,-35.0,0.0
3263,6.373046875,101,-55.0,0.0
3264,6.375,102,-20.0,0.0
3265,6.376953125,102,24.0,0.0
3266,6.37890625,102,21.0,0.0
3267,6.380859375,102,4.0,0.0
3268,6.3828125,102,54.0,0.0
3269,6.384765625,102,134.0,0.0
3270,6.38671875,102,152.0,0.0
3271,6.388671875,102,134.0,0.0
3272,6.390625,102,121.0,0.0
3273,6.392578125,102,130.0,0.0
3274,6.39453125,102,134.0,0.0
3275,6.396484375,102,105.0,0.0
3276,6.3984375,102,61.0,0.0
3277,6.400390625,102,56.0,0.0
3278,6.40234375,102,77.0,0.0
3279,6.404296875,102,130.0,0.0
3280,6.40625,102,187.0,0.0
3281,6.408203125,102,197.0,0.0
3282,6.41015625,102,156.0,0.0
3283,6.412109375,102,101.0,0.0
3284,6.4140625,102,28.0,0.0
3285,6.416015625,102,-54.0,0.0
3286,6.41796875,102,-89.0,0.0
3287,6.419921875,102,-62.0,0.0
3288,6.421875,102,-70.0,0.0
3289,6.423828125,102,-90.0,0.0
3290,6.42578125,102,-118.0,0.0
3291,6.427734375,102,-182.0,0.0
3292,6.4296875,102,-216.0,0.0
3293,6.431640625,102,-177.0,0.0
3294,6.43359375,102,-132.0,0.0
3295,6.435546875,102,-107.0,0.0
3296,6.4375,103,-85.0,0.0
3297,6.439453125,103,-77.0,0.0
3298,6.44140625,103,-67.0,0.0
3299,6.443359375,103,-49.0,0.0
3300,6.4453125,103,5.0,0.0
3301,6.447265625,103,51.0,0.0
3302,6.44921875,103,32.0,0.0
3303,6.451171875,103,-7.0,0.0
3304,6.453125,103,-24.0,0.0
3305,6.455078125,103,-12.0,0.0
3306,6.45703125,103,3.0,0.0
3307,6.458984375,103,28.0,0.0
3308,6.4609375,103,58.0,0.0
3309,6.462890625,103,89.0,0.0
3310,6.46484375,103,74.0,0.0
3311,6.466796875,103,54.0,0.0
3312,6.46875,103,74.0,0.0
3313,6.470703125,103,89.0,0.0
3314,6.47265625,103,65.0,0.0
3315,6.474609375,103,56.0,0.0
3316,6.4765625,103,73.0,0.0
3317,6.478515625,103,113.0,0.0
3318,6.48046875,103,138.0,0.0
3319,6.482421875,103,138.0,0.0
3320,6.484375,103,155.0,0.0
3321,6.486328125,103,154.0,0.0
3322,6.48828125,103,118.0,0.0
3323,6.490234375,103,121.0,0.0
3324,6.4921875,103,156.0,0.0
3325,6.494140625,103,118.0,0.0
3326,6.49609375,103,42.0,0.0
3327,6.498046875,103,49.0,0.0
3328,6.5,104,84.0,0.0
3329,6.501953125,104,88.0,0.0
3330,6.50390625,104,77.0,0.0
3331,6.505859375,104,82.0,0.0
3332,6.5078125,104,90.0,0.0
3333,6.509765625,104,86.0,0.0
3334,6.51171875,104,67.0,0.0
3335,6.513671875,104,71.0,0.0
3336,6.515625,104,99.0,0.0
3337,6.517578125,104,92.0,0.0
3338,6.51953125,104,26.0,0.0
3339,6.521484375,104,-21.0,0.0
3340,6.5234375,104,6.0,0.0
3341,6.525390625,104,67.0,0.0
3342,6.52734375,104,90.0,0.0
3343,6.529296875,104,87.0,0.0
3344,6.53125,104,55.0,0.0
3345,6.533203125,104,18.0,0.0
3346,6.53515625,104,4.0,0.0
3347,6.537109375,104,2.0,0.0
3348,6.5390625,104,-20.0,0.0
3349,6.541015625,104,-61.0,0.0
3350,6.54296875,104,-87.0,0.0
3351,6.544921875,104,-86.0,0.0
3352,6.546875,104,-86.0,0.0
3353,6.548828125,104,-114.0,0.0
3354,6.55078125,104,-147.0,0.0
3355,6.552734375,104,-132.0,0.0
3356,6.5546875,104,-76.0,0.0
3357,6.556640625,104,-39.0,0.0
3358,6.55859375,104,-51.0,0.0
3359,6.560546875,104,-98.0,0.0
3360,6.5625,105,-102.0,0.0
3361,6.564453125,105,-68.0,0.0
3362,6.56640625,105,-42.0,0.0
3363,6.568359375,105,-39.0,0.0
3364,6.5703125,105,1.0,0.0
3365,6.572265625,105,54.0,0.0
3366,6.57421875,105,85.0,0.0
3367,6.576171875,105,92.0,0.0
3368,6.578125,105,89.0,0.0
3369,6.580078125,105,97.0,0.0
3370,6.58203125,105,100.0,0.0
3371,6.583984375,105,91.0,0.0
3372,6.5859375,105,83.0,0.0
3373,6.587890625,105,74.0,0.0
3374,6.58984375,105,71.0,0.0
3375,6.591796875,105,89.0,0.0
3376,6.59375,105,104.0,33552.0
3377,6.595703125,105,99.0,0.0
3378,6.59765625,105,85.0,0.0
3379,6.599609375,105,70.0,0.0
3380,6.6015625,105,66.0,0.0
3381,6.603515625,105,49.0,0.0
3382,6.60546875,105,9.0,0.0
3383,6.607421875,105,2.0,0.0
3384,6.609375,105,5.0,0.0
3385,6.611328125,105,24.0,0.0
3386,6.61328125,105,44.0,0.0
3387,6.615234375,105,54.0,0.0
3388,6.6171875,105,73.0,0.0
3389,6.619140625,105,67.0,0.0
3390,6.62109375,105,54.0,0.0
3391,6.623046875,105,54.0,0.0
3392,6.625,106,42.0,0.0
3393,6.626953125,106,55.0,0.0
3394,6.62890625,106,84.0,0.0
3395,6.630859375,106,112.0,0.0
3396,6.6328125,106,138.0,0.0
3397,6.634765625,106,139.0,0.0
3398,6.63671875,106,84.0,0.0
3399,6.638671875,106,42.0,0.0
3400,6.640625,106,45.0,0.0
3401,6.642578125,106,66.0,0.0
3402,6.64453125,106,56.0,0.0
3403,6.646484375,106,39.0,0.0
3404,6.6484375,106,50.0,0.0
3405,6.650390625,106,73.0,0.0
3406,6.65234375,106,60.0,0.0
3407,6.654296875,106,27.0,0.0
3408,6.65625,106,22.0,0.0
3409,6.658203125,106,70.0,0.0
3410,6.66015625,106,116.0,0.0
3411,6.662109375,106,123.0,0.0
3412,6.6640625,106,90.0,0.0
3413,6.666015625,106,42.0,0.0
3414,6.66796875,106,16.0,0.0
3415,6.669921875,106,45.0,0.0
3416,6.671875,106,90.0,0.0
3417,6.673828125,106,85.0,0.0
3418,6.67578125,106,43.0,0.0
3419,6.677734375,106,26.0,0.0
3420,6.6796875,106,17.0,0.0
3421,6.681640625,106,6.0,0.0
3422,6.68359375,106,24.0,0.0
3423,6.685546875,106,51.0,0.0
3424,6.6875,107,89.0,0.0
3425,6.689453125,107,130.0,0.0
3426,6.69140625,107,152.0,0.0
3427,6.693359375,107,169.0,0.0
3428,6.6953125,107,150.0,0.0
3429,6.697265625,107,118.0,0.0
3430,6.69921875,107,113.0,0.0
3431,6.701171875,107,112.0,0.0
3432,6.703125,107,107.0,0.0
3433,6.705078125,107,69.0,0.0
3434,6.70703125,107,26.0,0.0
3435,6.708984375,107,32.0,0.0
3436,6.7109375,107,84.0,0.0
3437,6.712890625,107,139.0,0.0
3438,6.71484375,107,167.0,0.0
3439,6.716796875,107,179.0,0.0
3440,6.71875,107,173.0,0.0
3441,6.720703125,107,164.0,0.0
3442,6.72265625,107,139.0,0.0
3443,6.724609375,107,134.0,0.0
3444,6.7265625,107,104.0,0.0
3445,6.728515625,107,72.0,0.0
3446,6.73046875,107,68.0,0.0
3447,6.732421875,107,58.0,0.0
3448,6.734375,107,72.0,0.0
3449,6.736328125,107,86.0,0.0
3450,6.73828125,107,75.0,0.0
3451,6.740234375,107,60.0,0.0
3452,6.7421875,107,52.0,0.0
3453,6.744140625,107,64.0,0.0
3454,6.74609375,107,38.0,0.0
3455,6.748046875,107,-8.0,0.0
3456,6.75,108,6.0,0.0
3457,6.751953125,108,55.0,0.0
3458,6.75390625,108,68.0,0.0
3459,6.755859375,108,71.0,0.0
3460,6.7578125,108,80.0,0.0
3461,6.759765625,108,81.0,0.0
3462,6.76171875,108,74.0,0.0
3463,6.763671875,108,58.0,0.0
3464,6.765625,108,35.0,0.0
3465,6.767578125,108,8.0,0.0
3466,6.76953125,108,-10.0,0.0
3467,6.771484375,108,-33.0,0.0
3468,6.7734375,108,-41.0,0.0
3469,6.775390625,108,-30.0,0.0
3470,6.77734375,108,-10.0,0.0
3471,6.779296875,108,-10.0,0.0
3472,6.78125,108,-7.0,0.0
3473,6.783203125,108,32.0,0.0
3474,6.78515625,108,50.0,0.0
3475,6.787109375,108,8.0,0.0
3476,6.7890625,108,-20.0,0.0
3477,6.791015625,108,2.0,0.0
3478,6.79296875,108,32.0,0.0
3479,6.794921875,108,42.0,0.0
3480,6.796875,108,43.0,0.0
3481,6.798828125,108,67.0,0.0
3482,6.80078125,108,91.0,0.0
3483,6.802734375,108,105.0,0.0
3484,6.8046875,108,112.0,0.0
3485,6.806640625,108,89.0,0.0
3486,6.80859375,108,66.0,0.0
3487,6.810546875,108,37.0,0.0
3488,6.8125,109,10.0,0.0
3489,6.814453125,109,1.0,0.0
3490,6.81640625,109,-6.0,0.0
3491,6.818359375,109,3.0,0.0
3492,6.8203125,109,12.0,0.0
3493,6.822265625,109,-6.0,0.0
3494,6.82421875,109,-43.0,0.0
3495,6.826171875,109,-49.0,0.0
3496,6.828125,109,-12.0,0.0
3497,6.830078125,109,26.0,0.0
3498,6.83203125,109,24.0,0.0
3499,6.833984375,109,-10.0,0.0
3500,6.8359375,109,1.0,0.0
3501,6.837890625,109,38.0,0.0
3502,6.83984375,109,49.0,0.0
3503,6.841796875,109,48.0,0.0
3504,6.84375,109,55.0,0.0
3505,6.845703125,109,86.0,0.0
3506,6.84765625,109,122.0,0.0
3507,6.849609375,109,146.0,0.0
3508,6.8515625,109,131.0,0.0
3509,6.853515625,109,89.0,0.0
3510,6.85546875,109,38.0,0.0
3511,6.857421875,109,17.0,0.0
3512,6.859375,109,33.0,0.0
3513,6.861328125,109,50.0,0.0
3514,6.86328125,109,67.0,0.0
3515,6.865234375,109,73.0,0.0
3516,6.8671875,109,68.0,0.0
3517,6.869140625,109,68.0,0.0
3518,6.87109375,109,104.0,0.0
3519,6.873046875,109,134.0,0.0
3520,6.875,110,105.0,0.0
3521,6.876953125,110,74.0,0.0
3522,6.87890625,110,54.0,0.0
3523,6.880859375,110,29.0,0.0
3524,6.8828125,110,6.0,0.0
3525,6.884765625,110,-14.0,0.0
3526,6.88671875,110,-54.0,0.0
3527,6.888671875,110,-65.0,0.0
3528,6.890625,110,-34.0,0.0
3529,6.892578125,110,-25.0,0.0
3530,6.89453125,110,-41.0,0.0
3531,6.896484375,110,-46.0,0.0
3532,6.8984375,110,-22.0,0.0
3533,6.900390625,110,18.0,0.0
3534,6.90234375,110,40.0,0.0
3535,6.904296875,110,23.0,0.0
3536,6.90625,110,-4.0,0.0
3537,6.908203125,110,2.0,0.0
3538,6.91015625,110,-7.0,0.0
3539,6.912109375,110,-37.0,0.0
3540,6.9140625,110,-61.0,0.0
3541,6.916015625,110,-72.0,0.0
3542,6.91796875,110,-72.0,0.0
3543,6.919921875,110,-53.0,0.0
3544,6.921875,110,-26.0,0.0
3545,6.923828125,110,-21.0,0.0
3546,6.92578125,110,-34.0,0.0
3547,6.927734375,110,-52.0,0.0
3548,6.9296875,110,-76.0,0.0
3549,6.931640625,110,-97.0,0.0
3550,6.93359375,110,-84.0,0.0
3551,6.935546875,110,-52.0,0.0
3552,6.9375,111,2.0,0.0
3553,6.939453125,111,42.0,0.0
3554,6.94140625,111,56.0,0.0
3555,6.943359375,111,35.0,0.0
3556,6.9453125,111,-10.0,0.0
3557,6.947265625,111,-30.0,0.0
3558,6.94921875,111,-4.0,0.0
3559,6.951171875,111,5.0,0.0
3560,6.953125,111,-38.0,0.0
3561,6.955078125,111,-75.0,0.0
3562,6.95703125,111,-60.0,0.0
3563,6.958984375,111,-33.0,0.0
3564,6.9609375,111,-10.0,0.0
3565,6.962890625,111,-20.0,0.0
3566,6.96484375,111,-44.0,0.0
3567,6.966796875,111,-44.0,0.0
3568,6.96875,111,-6.0,0.0
3569,6.970703125,111,21.0,0.0
3570,6.97265625,111,13.0,0.0
3571,6.974609375,111,4.0,0.0
3572,6.9765625,111,16.0,0.0
3573,6.978515625,111,66.0,0.0
3574,6.98046875,111,118.0,0.0
3575,6.982421875,111,116.0,0.0
3576,6.984375,111,82.0,0.0
3577,6.986328125,111,70.0,0.0
3578,6.98828125,111,72.0,0.0
3579,6.990234375,111,107.0,0.0
3580,6.9921875,111,120.0,0.0
3581,6.994140625,111,102.0,0.0
3582,6.99609375,111,105.0,0.0
3583,6.998046875,111,100.0,0.0
3584,7.0,112,75.0,0.0
3585,7.001953125,112,75.0,0.0
3586,7.00390625,112,87.0,0.0
3587,7.005859375,112,64.0,0.0
3588,7.0078125,112,8.0,0.0
3589,7.009765625,112,-39.0,0.0
3590,7.01171875,112,-50.0,0.0
3591,7.013671875,112,-17.0,0.0
3592,7.015625,112,52.0,0.0
3593,7.017578125,112,70.0,0.0
3594,7.01953125,112,38.0,0.0
3595,7.021484375,112,23.0,0.0
3596,7.0234375,112,45.0,0.0
3597,7.025390625,112,91.0,0.0
3598,7.02734375,112,115.0,0.0
3599,7.029296875,112,83.0,33553.0
3600,7.03125,112,83.0,33554.0
3601,7.033203125,112,20.0,0.0
3602,7.03515625,112,13.0,0.0
3603,7.037109375,112,64.0,0.0
3604,7.0390625,112,86.0,0.0
3605,7.041015625,112,72.0,0.0
3606,7.04296875,112,40.0,0.0
3607,7.044921875,112,7.0,0.0
3608,7.046875,112,-27.0,0.0
3609,7.048828125,112,-35.0,0.0
3610,7.05078125,112,-6.0,0.0
3611,7.052734375,112,-9.0,0.0
3612,7.0546875,112,-51.0,0.0
3613,7.056640625,112,-50.0,0.0
3614,7.05859375,112,2.0,0.0
3615,7.060546875,112,59.0,0.0
3616,7.0625,113,82.0,0.0
3617,7.064453125,113,71.0,0.0
3618,7.06640625,113,87.0,0.0
3619,7.068359375,113,130.0,0.0
3620,7.0703125,113,149.0,0.0
3621,7.072265625,113,118.0,0.0
3622,7.07421875,113,75.0,0.0
3623,7.076171875,113,56.0,0.0
3624,7.078125,113,64.0,0.0
3625,7.080078125,113,56.0,0.0
3626,7.08203125,113,27.0,0.0
3627,7.083984375,113,26.0,0.0
3628,7.0859375,113,43.0,0.0
3629,7.087890625,113,54.0,0.0
3630,7.08984375,113,34.0,0.0
3631,7.091796875,113,-13.0,0.0
3632,7.09375,113,-25.0,0.0
3633,7.095703125,113,10.0,0.0
3634,7.09765625,113,59.0,0.0
3635,7.099609375,113,80.0,0.0
3636,7.1015625,113,58.0,0.0
3637,7.103515625,113,44.0,0.0
3638,7.10546875,113,73.0,0.0
3639,7.107421875,113,107.0,0.0
3640,7.109375,113,98.0,0.0
3641,7.111328125,113,81.0,0.0
3642,7.11328125,113,88.0,0.0
3643,7.115234375,113,92.0,0.0
3644,7.1171875,113,114.0,0.0
3645,7.119140625,113,118.0,0.0
3646,7.12109375,113,90.0,0.0
3647,7.123046875,113,64.0,0.0
3648,7.125,114,59.0,0.0
3649,7.126953125,114,81.0,0.0
3650,7.12890625,114,93.0,0.0
3651,7.130859375,114,93.0,0.0
3652,7.1328125,114,103.0,0.0
3653,7.134765625,114,119.0,0.0
3654,7.13671875,114,106.0,0.0
3655,7.138671875,114,104.0,0.0
3656,7.140625,114,135.0,0.0
3657,7.142578125,114,157.0,0.0
3658,7.14453125,114,163.0,0.0
3659,7.146484375,114,150.0,0.0
3660,7.1484375,114,130.0,0.0
3661,7.150390625,114,104.0,0.0
3662,7.15234375,114,93.0,0.0
3663,7.154296875,114,84.0,0.0
3664,7.15625,114,74.0,0.0
3665,7.158203125,114,72.0,0.0
3666,7.16015625,114,87.0,0.0
3667,7.162109375,114,86.0,0.0
3668,7.1640625,114,68.0,0.0
3669,7.166015625,114,49.0,0.0
3670,7.16796875,114,35.0,0.0
3671,7.169921875,114,19.0,0.0
3672,7.171875,114,19.0,0.0
3673,7.173828125,114,28.0,0.0
3674,7.17578125,114,51.0,0.0
3675,7.177734375,114,52.0,0.0
3676,7.1796875,114,45.0,0.0
3677,7.181640625,114,72.0,0.0
3678,7.18359375,114,117.0,0.0
3679,7.185546875,114,129.0,0.0
3680,7.1875,115,107.0,0.0
3681,7.189453125,115,83.0,0.0
3682,7.19140625,115,49.0,0.0
3683,7.193359375,115,24.0,0.0
3684,7.1953125,115,36.0,0.0
3685,7.197265625,115,36.0,0.0
3686,7.19921875,115,33.0,0.0
3687,7.201171875,115,51.0,0.0
3688,7.203125,115,75.0,0.0
3689,7.205078125,115,65.0,0.0
3690,7.20703125,115,52.0,0.0
3691,7.208984375,115,36.0,0.0
3692,7.2109375,115,-7.0,0.0
3693,7.212890625,115,1.0,0.0
3694,7.21484375,115,49.0,0.0
3695,7.216796875,115,55.0,0.0
3696,7.21875,115,53.0,0.0
3697,7.220703125,115,83.0,0.0
3698,7.22265625,115,96.0,0.0
3699,7.224609375,115,21.0,0.0
3700,7.2265625,115,-26.0,0.0
3701,7.228515625,115,13.0,0.0
3702,7.23046875,115,58.0,0.0
3703,7.232421875,115,40.0,0.0
3704,7.234375,115,10.0,0.0
3705,7.236328125,115,18.0,0.0
3706,7.23828125,115,16.0,0.0
3707,7.240234375,115,39.0,0.0
3708,7.2421875,115,92.0,0.0
3709,7.244140625,115,100.0,0.0
3710,7.24609375,115,74.0,0.0
3711,7.248046875,115,26.0,0.0
3712,7.25,116,2.0,0.0
3713,7.251953125,116,10.0,0.0
3714,7.25390625,116,40.0,0.0
3715,7.255859375,116,57.0,0.0
3716,7.2578125,116,56.0,0.0
3717,7.259765625,116,53.0,0.0
3718,7.26171875,116,76.0,0.0
3719,7.263671875,116,102.0,0.0
3720,7.265625,116,86.0,0.0
3721,7.267578125,116,55.0,0.0
3722,7.26953125,116,10.0,0.0
3723,7.271484375,116,-45.0,0.0
3724,7.2734375,116,-54.0,0.0
3725,7.275390625,116,-12.0,0.0
3726,7.27734375,116,-13.0,0.0
3727,7.279296875,116,-53.0,0.0
3728,7.28125,116,-70.0,0.0
3729,7.283203125,116,-27.0,0.0
3730,7.28515625,116,54.0,0.0
3731,7.287109375,116,81.0,0.0
3732,7.2890625,116,22.0,0.0
3733,7.291015625,116,-34.0,0.0
3734,7.29296875,116,-40.0,0.0
3735,7.294921875,116,-28.0,0.0
3736,7.296875,116,-10.0,0.0
3737,7.298828125,116,-3.0,0.0
3738,7.30078125,116,-8.0,0.0
3739,7.302734375,116,-33.0,0.0
3740,7.3046875,116,-38.0,0.0
3741,7.306640625,116,6.0,0.0
3742,7.30859375,116,65.0,0.0
3743,7.310546875,116,88.0,0.0
3744,7.3125,117,60.0,0.0
3745,7.314453125,117,34.0,0.0
3746,7.31640625,117,34.0,0.0
3747,7.318359375,117,24.0,0.0
3748,7.3203125,117,0.0,0.0
3749,7.322265625,117,-12.0,0.0
3750,7.32421875,117,-1.0,0.0
3751,7.326171875,117,24.0,0.0
3752,7.328125,117,50.0,0.0
3753,7.330078125,117,36.0,0.0
3754,7.33203125,117,25.0,0.0
3755,7.333984375,117,54.0,0.0
3756,7.3359375,117,35.0,0.0
3757,7.337890625,117,-14.0,0.0
3758,7.33984375,117,-3.0,0.0
3759,7.341796875,117,37.0,0.0
3760,7.34375,117,52.0,0.0
3761,7.345703125,117,41.0,0.0
3762,7.34765625,117,29.0,0.0
3763,7.349609375,117,32.0,0.0
3764,7.3515625,117,48.0,0.0
3765,7.353515625,117,59.0,0.0
3766,7.35546875,117,53.0,0.0
3767,7.357421875,117,36.0,0.0
3768,7.359375,117,34.0,0.0
3769,7.361328125,117,38.0,0.0
3770,7.36328125,117,34.0,0.0
3771,7.365234375,117,26.0,0.0
3772,7.3671875,117,32.0,0.0
3773,7.369140625,117,37.0,0.0
3774,7.37109375,117,28.0,0.0
3775,7.373046875,117,3.0,0.0
3776,7.375,118,-13.0,0.0
3777,7.376953125,118,-19.0,0.0
3778,7.37890625,118,-21.0,0.0
3779,7.380859375,118,-28.0,0.0
3780,7.3828125,118,-26.0,0.0
3781,7.384765625,118,-7.0,0.0
3782,7.38671875,118,41.0,0.0
3783,7.388671875,118,91.0,0.0
3784,7.390625,118,97.0,0.0
3785,7.392578125,118,80.0,0.0
3786,7.39453125,118,80.0,0.0
3787,7.396484375,118,89.0,0.0
3788,7.3984375,118,114.0,0.0
3789,7.400390625,118,117.0,0.0
3790,7.40234375,118,93.0,0.0
3791,7.404296875,118,97.0,0.0
3792,7.40625,118,119.0,0.0
3793,7.408203125,118,138.0,0.0
3794,7.41015625,118,119.0,0.0
3795,7.412109375,118,101.0,0.0
3796,7.4140625,118,87.0,0.0
3797,7.416015625,118,50.0,0.0
3798,7.41796875,118,17.0,0.0
3799,7.419921875,118,-4.0,0.0
3800,7.421875,118,-1.0,0.0
3801,7.423828125,118,22.0,0.0
3802,7.42578125,118,48.0,0.0
3803,7.427734375,118,60.0,0.0
3804,7.4296875,118,89.0,0.0
3805,7.431640625,118,115.0,0.0
3806,7.43359375,118,102.0,0.0
3807,7.435546875,118,102.0,0.0
3808,7.4375,119,128.0,0.0
3809,7.439453125,119,148.0,0.0
3810,7.44140625,119,134.0,0.0
3811,7.443359375,119,91.0,0.0
3812,7.4453125,119,75.0,0.0
3813,7.447265625,119,85.0,0.0
3814,7.44921875,119,99.0,0.0
3815,7.451171875,119,114.0,0.0
3816,7.453125,119,121.0,0.0
3817,7.455078125,119,90.0,0.0
3818,7.45703125,119,74.0,0.0
3819,7.458984375,119,60.0,0.0
3820,7.4609375,119,42.0,0.0
3821,7.462890625,119,26.0,0.0
3822,7.46484375,119,17.0,0.0
3823,7.466796875,119,18.0,0.0
3824,7.46875,119,8.0,0.0
3825,7.470703125,119,-19.0,0.0
3826,7.47265625,119,-28.0,0.0
3827,7.474609375,119,-9.0,0.0
3828,7.4765625,119,-6.0,0.0
3829,7.478515625,119,-27.0,0.0
3830,7.48046875,119,-42.0,0.0
3831,7.482421875,119,-26.0,0.0
3832,7.484375,119,-11.0,0.0
3833,7.486328125,119,0.0,0.0
3834,7.48828125,119,17.0,0.0
3835,7.490234375,119,52.0,0.0
3836,7.4921875,119,76.0,0.0
3837,7.494140625,119,86.0,0.0
3838,7.49609375,119,99.0,0.0
3839,7.498046875,119,89.0,0.0
3840,7.5,120,72.0,0.0
3841,7.501953125,120,65.0,0.0
3842,7.50390625,120,60.0,0.0
3843,7.505859375,120,44.0,0.0
3844,7.5078125,120,25.0,0.0
3845,7.509765625,120,20.0,0.0
3846,7.51171875,120,36.0,0.0
3847,7.513671875,120,72.0,0.0
3848,7.515625,120,100.0,0.0
3849,7.517578125,120,89.0,0.0
3850,7.51953125,120,53.0,0.0
3851,7.521484375,120,36.0,0.0
3852,7.5234375,120,27.0,0.0
3853,7.525390625,120,37.0,0.0
3854,7.52734375,120,26.0,0.0
3855,7.529296875,120,18.0,0.0
3856,7.53125,120,44.0,0.0
3857,7.533203125,120,69.0,0.0
3858,7.53515625,120,54.0,0.0
3859,7.537109375,120,29.0,0.0
3860,7.5390625,120,27.0,0.0
3861,7.541015625,120,23.0,0.0
3862,7.54296875,120,16.0,0.0
3863,7.544921875,120,34.0,0.0
3864,7.546875,120,44.0,0.0
3865,7.548828125,120,10.0,0.0
3866,7.55078125,120,-4.0,0.0
3867,7.552734375,120,11.0,0.0
3868,7.5546875,120,23.0,0.0
3869,7.556640625,120,40.0,0.0
3870,7.55859375,120,74.0,0.0
3871,7.560546875,120,102.0,0.0
3872,7.5625,121,92.0,0.0
3873,7.564453125,121,25.0,0.0
3874,7.56640625,121,-20.0,0.0
3875,7.568359375,121,-6.0,0.0
3876,7.5703125,121,9.0,0.0
3877,7.572265625,121,-13.0,0.0
3878,7.57421875,121,-38.0,0.0
3879,7.576171875,121,-22.0,0.0
3880,7.578125,121,-1.0,0.0
3881,7.580078125,121,6.0,0.0
3882,7.58203125,121,23.0,0.0
3883,7.583984375,121,36.0,0.0
3884,7.5859375,121,40.0,0.0
3885,7.587890625,121,50.0,0.0
3886,7.58984375,121,66.0,0.0
3887,7.591796875,121,74.0,0.0
3888,7.59375,121,73.0,0.0
3889,7.595703125,121,70.0,0.0
3890,7.59765625,121,68.0,0.0
3891,7.599609375,121,69.0,0.0
3892,7.6015625,121,65.0,0.0
3893,7.603515625,121,60.0,0.0
3894,7.60546875,121,66.0,0.0
3895,7.607421875,121,65.0,0.0
3896,7.609375,121,57.0,0.0
3897,7.611328125,121,45.0,0.0
3898,7.61328125,121,27.0,0.0
3899,7.615234375,121,29.0,0.0
3900,7.6171875,121,54.0,0.0
3901,7.619140625,121,68.0,0.0
3902,7.62109375,121,75.0,0.0
3903,7.623046875,121,90.0,0.0
3904,7.625,122,77.0,0.0
3905,7.626953125,122,52.0,0.0
3906,7.62890625,122,60.0,0.0
3907,7.630859375,122,86.0,0.0
3908,7.6328125,122,84.0,0.0
3909,7.634765625,122,72.0,0.0
3910,7.63671875,122,86.0,0.0
3911,7.638671875,122,90.0,0.0
3912,7.640625,122,69.0,0.0
3913,7.642578125,122,53.0,0.0
3914,7.64453125,122,68.0,0.0
3915,7.646484375,122,81.0,0.0
3916,7.6484375,122,73.0,0.0
3917,7.650390625,122,59.0,0.0
3918,7.65234375,122,37.0,0.0
3919,7.654296875,122,10.0,0.0
3920,7.65625,122,24.0,0.0
3921,7.658203125,122,66.0,0.0
3922,7.66015625,122,74.0,0.0
3923,7.662109375,122,42.0,0.0
3924,7.6640625,122,18.0,0.0
3925,7.666015625,122,28.0,0.0
3926,7.66796875,122,59.0,0.0
3927,7.669921875,122,81.0,0.0
3928,7.671875,122,72.0,0.0
3929,7.673828125,122,53.0,0.0
3930,7.67578125,122,38.0,0.0
3931,7.677734375,122,43.0,0.0
3932,7.6796875,122,59.0,0.0
3933,7.681640625,122,70.0,0.0
3934,7.68359375,122,73.0,0.0
3935,7.685546875,122,68.0,0.0
3936,7.6875,123,69.0,0.0
3937,7.689453125,123,80.0,0.0
3938,7.69140625,123,102.0,0.0
3939,7.693359375,123,99.0,0.0
3940,7.6953125,123,85.0,0.0
3941,7.697265625,123,82.0,0.0
3942,7.69921875,123,77.0,0.0
3943,7.701171875,123,69.0,0.0
3944,7.703125,123,54.0,0.0
3945,7.705078125,123,64.0,0.0
3946,7.70703125,123,72.0,0.0
3947,7.708984375,123,58.0,0.0
3948,7.7109375,123,42.0,0.0
3949,7.712890625,123,35.0,0.0
3950,7.71484375,123,43.0,0.0
3951,7.716796875,123,74.0,0.0
3952,7.71875,123,102.0,0.0
3953,7.720703125,123,99.0,0.0
3954,7.72265625,123,73.0,0.0
3955,7.724609375,123,60.0,0.0
3956,7.7265625,123,52.0,0.0
3957,7.728515625,123,36.0,0.0
3958,7.73046875,123,38.0,0.0
3959,7.732421875,123,55.0,0.0
3960,7.734375,123,61.0,0.0
3961,7.736328125,123,53.0,0.0
3962,7.73828125,123,34.0,0.0
3963,7.740234375,123,40.0,0.0
3964,7.7421875,123,65.0,0.0
3965,7.744140625,123,75.0,0.0
3966,7.74609375,123,73.0,0.0
3967,7.748046875,123,59.0,0.0
3968,7.75,124,48.0,0.0
3969,7.751953125,124,33.0,0.0
3970,7.75390625,124,17.0,0.0
3971,7.755859375,124,24.0,0.0
3972,7.7578125,124,58.0,0.0
3973,7.759765625,124,81.0,0.0
3974,7.76171875,124,86.0,0.0
3975,7.763671875,124,106.0,0.0
3976,7.765625,124,145.0,0.0
3977,7.767578125,124,154.0,0.0
3978,7.76953125,124,123.0,0.0
3979,7.771484375,124,99.0,0.0
3980,7.7734375,124,81.0,0.0
3981,7.775390625,124,54.0,0.0
3982,7.77734375,124,38.0,0.0
3983,7.779296875,124,40.0,0.0
3984,7.78125,124,42.0,0.0
3985,7.783203125,124,34.0,0.0
3986,7.78515625,124,25.0,0.0
3987,7.787109375,124,37.0,0.0
3988,7.7890625,124,65.0,0.0
3989,7.791015625,124,92.0,0.0
3990,7.79296875,124,108.0,0.0
3991,7.794921875,124,102.0,0.0
3992,7.796875,124,77.0,0.0
3993,7.798828125,124,66.0,0.0
3994,7.80078125,124,82.0,0.0
3995,7.802734375,124,86.0,0.0
3996,7.8046875,124,64.0,0.0
3997,7.806640625,124,45.0,0.0
3998,7.80859375,124,69.0,0.0
3999,7.810546875,124,98.0,0.0
4000,7.8125,125,100.0,0.0
4001,7.814453125,125,76.0,0.0
4002,7.81640625,125,52.0,0.0
4003,7.818359375,125,44.0,0.0
4004,7.8203125,125,48.0,0.0
4005,7.822265625,125,38.0,0.0
4006,7.82421875,125,25.0,0.0
4007,7.826171875,125,11.0,0.0
4008,7.828125,125,5.0,0.0
4009,7.830078125,125,0.0,0.0
4010,7.83203125,125,-9.0,0.0
4011,7.833984375,125,-18.0,0.0
4012,7.8359375,125,-11.0,0.0
4013,7.837890625,125,-12.0,0.0
4014,7.83984375,125,-21.0,0.0
4015,7.841796875,125,-4.0,0.0
4016,7.84375,125,40.0,33552.0
4017,7.845703125,125,38.0,0.0
4018,7.84765625,125,16.0,0.0
4019,7.849609375,125,-10.0,0.0
4020,7.8515625,125,-25.0,0.0
4021,7.853515625,125,-27.0,0.0
4022,7.85546875,125,-12.0,0.0
4023,7.857421875,125,17.0,0.0
4024,7.859375,125,28.0,0.0
4025,7.861328125,125,12.0,0.0
4026,7.86328125,125,-8.0,0.0
4027,7.865234375,125,-26.0,0.0
4028,7.8671875,125,-34.0,0.0
4029,7.869140625,125,-22.0,0.0
4030,7.87109375,125,1.0,0.0
4031,7.873046875,125,9.0,0.0
4032,7.875,126,20.0,0.0
4033,7.876953125,126,39.0,0.0
4034,7.87890625,126,54.0,0.0
4035,7.880859375,126,42.0,0.0
4036,7.8828125,126,27.0,0.0
4037,7.884765625,126,36.0,0.0
4038,7.88671875,126,38.0,0.0
4039,7.888671875,126,23.0,0.0
4040,7.890625,126,-7.0,0.0
4041,7.892578125,126,-26.0,0.0
4042,7.89453125,126,-14.0,0.0
4043,7.896484375,126,2.0,0.0
4044,7.8984375,126,10.0,0.0
4045,7.900390625,126,6.0,0.0
4046,7.90234375,126,7.0,0.0
4047,7.904296875,126,2.0,0.0
4048,7.90625,126,-8.0,0.0
4049,7.908203125,126,-22.0,0.0
4050,7.91015625,126,-19.0,0.0
4051,7.912109375,126,7.0,0.0
4052,7.9140625,126,32.0,0.0
4053,7.916015625,126,39.0,0.0
4054,7.91796875,126,44.0,0.0
4055,7.919921875,126,65.0,0.0
4056,7.921875,126,91.0,0.0
4057,7.923828125,126,98.0,0.0
4058,7.92578125,126,55.0,0.0
4059,7.927734375,126,16.0,0.0
4060,7.9296875,126,7.0,0.0
4061,7.931640625,126,22.0,0.0
4062,7.93359375,126,34.0,0.0
4063,7.935546875,126,38.0,0.0
4064,7.9375,127,41.0,0.0
4065,7.939453125,127,38.0,0.0
4066,7.94140625,127,48.0,0.0
4067,7.943359375,127,74.0,0.0
4068,7.9453125,127,96.0,0.0
4069,7.947265625,127,97.0,0.0
4070,7.94921875,127,90.0,0.0
4071,7.951171875,127,69.0,0.0
4072,7.953125,127,42.0,0.0
4073,7.955078125,127,28.0,0.0
4074,7.95703125,127,35.0,0.0
4075,7.958984375,127,49.0,0.0
4076,7.9609375,127,54.0,0.0
4077,7.962890625,127,58.0,0.0
4078,7.96484375,127,51.0,0.0
4079,7.966796875,127,25.0,0.0
4080,7.96875,127,8.0,0.0
4081,7.970703125,127,7.0,0.0
4082,7.97265625,127,-2.0,0.0
4083,7.974609375,127,-7.0,0.0
4084,7.9765625,127,-2.0,0.0
4085,7.978515625,127,18.0,0.0
4086,7.98046875,127,50.0,0.0
4087,7.982421875,127,71.0,0.0
4088,7.984375,127,71.0,0.0
4089,7.986328125,127,61.0,0.0
4090,7.98828125,127,66.0,0.0
4091,7.990234375,127,66.0,0.0
4092,7.9921875,127,56.0,0.0
4093,7.994140625,127,38.0,0.0
4094,7.99609375,127,40.0,0.0
4095,7.998046875,127,48.0,0.0
4096,8.0,128,32.0,0.0
4097,8.001953125,128,24.0,0.0
4098,8.00390625,128,40.0,0.0
4099,8.005859375,128,48.0,0.0
4100,8.0078125,128,43.0,0.0
4101,8.009765625,128,55.0,0.0
4102,8.01171875,128,55.0,0.0
4103,8.013671875,128,34.0,0.0
4104,8.015625,128,17.0,0.0
4105,8.017578125,128,17.0,0.0
4106,8.01953125,128,21.0,0.0
4107,8.021484375,128,24.0,0.0
4108,8.0234375,128,27.0,0.0
4109,8.025390625,128,32.0,0.0
4110,8.02734375,128,37.0,0.0
4111,8.029296875,128,41.0,0.0
4112,8.03125,128,51.0,0.0
4113,8.033203125,128,52.0,0.0
4114,8.03515625,128,20.0,0.0
4115,8.037109375,128,-11.0,0.0
4116,8.0390625,128,-37.0,0.0
4117,8.041015625,128,-54.0,0.0
4118,8.04296875,128,-42.0,0.0
4119,8.044921875,128,-7.0,0.0
4120,8.046875,128,21.0,0.0
4121,8.048828125,128,44.0,0.0
4122,8.05078125,128,91.0,0.0
4123,8.052734375,128,124.0,0.0
4124,8.0546875,128,125.0,0.0
4125,8.056640625,128,144.0,0.0
4126,8.05859375,128,135.0,0.0
4127,8.060546875,128,92.0,0.0
4128,8.0625,129,53.0,0.0
4129,8.064453125,129,38.0,0.0
4130,8.06640625,129,37.0,0.0
4131,8.068359375,129,32.0,0.0
4132,8.0703125,129,33.0,0.0
4133,8.072265625,129,36.0,0.0
4134,8.07421875,129,29.0,0.0
4135,8.076171875,129,29.0,0.0
4136,8.078125,129,32.0,0.0
4137,8.080078125,129,33.0,0.0
4138,8.08203125,129,17.0,0.0
4139,8.083984375,129,-12.0,0.0
4140,8.0859375,129,-21.0,0.0
4141,8.087890625,129,10.0,0.0
4142,8.08984375,129,34.0,0.0
4143,8.091796875,129,5.0,0.0
4144,8.09375,129,-35.0,0.0
4145,8.095703125,129,-44.0,0.0
4146,8.09765625,129,-34.0,0.0
4147,8.099609375,129,-42.0,0.0
4148,8.1015625,129,-75.0,0.0
4149,8.103515625,129,-81.0,0.0
4150,8.10546875,129,-36.0,0.0
4151,8.107421875,129,3.0,0.0
4152,8.109375,129,17.0,0.0
4153,8.111328125,129,25.0,0.0
4154,8.11328125,129,32.0,0.0
4155,8.115234375,129,32.0,0.0
4156,8.1171875,129,33.0,0.0
4157,8.119140625,129,42.0,0.0
4158,8.12109375,129,64.0,0.0
4159,8.123046875,129,74.0,0.0
4160,8.125,130,81.0,0.0
4161,8.126953125,130,85.0,0.0
4162,8.12890625,130,61.0,0.0
4163,8.130859375,130,50.0,0.0
4164,8.1328125,130,85.0,0.0
4165,8.134765625,130,130.0,0.0
4166,8.13671875,130,147.0,0.0
4167,8.138671875,130,132.0,0.0
4168,8.140625,130,120.0,0.0
4169,8.142578125,130,125.0,0.0
4170,8.14453125,130,144.0,0.0
4171,8.146484375,130,131.0,0.0
4172,8.1484375,130,114.0,0.0
4173,8.150390625,130,89.0,0.0
4174,8.15234375,130,71.0,0.0
4175,8.154296875,130,58.0,0.0
4176,8.15625,130,37.0,0.0
4177,8.158203125,130,8.0,0.0
4178,8.16015625,130,1.0,0.0
4179,8.162109375,130,33.0,0.0
4180,8.1640625,130,70.0,0.0
4181,8.166015625,130,97.0,0.0
4182,8.16796875,130,97.0,0.0
4183,8.169921875,130,70.0,0.0
4184,8.171875,130,59.0,0.0
4185,8.173828125,130,72.0,0.0
4186,8.17578125,130,82.0,0.0
4187,8.177734375,130,100.0,0.0
4188,8.1796875,130,114.0,0.0
4189,8.181640625,130,113.0,0.0
4190,8.18359375,130,104.0,0.0
4191,8.185546875,130,106.0,0.0
4192,8.1875,131,106.0,0.0
4193,8.189453125,131,90.0,0.0
4194,8.19140625,131,55.0,0.0
4195,8.193359375,131,6.0,0.0
4196,8.1953125,131,-24.0,0.0
4197,8.197265625,131,-26.0,0.0
4198,8.19921875,131,-35.0,0.0
4199,8.201171875,131,-52.0,0.0
4200,8.203125,131,-71.0,0.0
4201,8.205078125,131,-97.0,0.0
4202,8.20703125,131,-94.0,0.0
4203,8.208984375,131,-51.0,0.0
4204,8.2109375,131,5.0,0.0
4205,8.212890625,131,37.0,0.0
4206,8.21484375,131,64.0,0.0
4207,8.216796875,131,97.0,33553.0
4208,8.21875,131,97.0,33554.0
4209,8.220703125,131,113.0,0.0
4210,8.22265625,131,108.0,0.0
4211,8.224609375,131,82.0,0.0
4212,8.2265625,131,38.0,0.0
4213,8.228515625,131,-10.0,0.0
4214,8.23046875,131,-52.0,0.0
4215,8.232421875,131,-73.0,0.0
4216,8.234375,131,-71.0,0.0
4217,8.236328125,131,-46.0,0.0
4218,8.23828125,131,-10.0,0.0
4219,8.240234375,131,6.0,0.0
4220,8.2421875,131,7.0,0.0
4221,8.244140625,131,19.0,0.0
4222,8.24609375,131,29.0,0.0
4223,8.248046875,131,26.0,0.0
4224,8.25,132,-9.0,0.0
4225,8.251953125,132,-38.0,0.0
4226,8.25390625,132,-27.0,0.0
4227,8.255859375,132,-17.0,0.0
4228,8.2578125,132,-20.0,0.0
4229,8.259765625,132,-28.0,0.0
4230,8.26171875,132,-38.0,0.0
4231,8.263671875,132,-45.0,0.0
4232,8.265625,132,-37.0,0.0
4233,8.267578125,132,-35.0,0.0
4234,8.26953125,132,-75.0,0.0
4235,8.271484375,132,-129.0,0.0
4236,8.2734375,132,-146.0,0.0
4237,8.275390625,132,-108.0,0.0
4238,8.27734375,132,-58.0,0.0
4239,8.279296875,132,-51.0,0.0
4240,8.28125,132,-62.0,0.0
4241,8.283203125,132,-50.0,0.0
4242,8.28515625,132,-28.0,0.0
4243,8.287109375,132,-54.0,0.0
4244,8.2890625,132,-107.0,0.0
4245,8.291015625,132,-120.0,0.0
4246,8.29296875,132,-89.0,0.0
4247,8.294921875,132,-65.0,0.0
4248,8.296875,132,-56.0,0.0
4249,8.298828125,132,-51.0,0.0
4250,8.30078125,132,-56.0,0.0
4251,8.302734375,132,-46.0,0.0
4252,8.3046875,132,-13.0,0.0
4253,8.306640625,132,-12.0,0.0
4254,8.30859375,132,-39.0,0.0
4255,8.310546875,132,-73.0,0.0
4256,8.3125,133,-116.0,0.0
4257,8.314453125,133,-117.0,0.0
4258,8.31640625,133,-68.0,0.0
4259,8.318359375,133,-27.0,0.0
4260,8.3203125,133,-25.0,0.0
4261,8.322265625,133,-70.0,0.0
4262,8.32421875,133,-107.0,0.0
4263,8.326171875,133,-97.0,0.0
4264,8.328125,133,-65.0,0.0
4265,8.330078125,133,-72.0,0.0
4266,8.33203125,133,-132.0,0.0
4267,8.333984375,133,-209.0,0.0
4268,8.3359375,133,-209.0,0.0
4269,8.337890625,133,-146.0,0.0
4270,8.33984375,133,-92.0,0.0
4271,8.341796875,133,-62.0,0.0
4272,8.34375,133,-45.0,0.0
4273,8.345703125,133,-39.0,0.0
4274,8.34765625,133,-36.0,0.0
4275,8.349609375,133,-24.0,0.0
4276,8.3515625,133,-34.0,0.0
4277,8.353515625,133,-61.0,0.0
4278,8.35546875,133,-100.0,0.0
4279,8.357421875,133,-133.0,0.0
4280,8.359375,133,-158.0,0.0
4281,8.361328125,133,-177.0,0.0
4282,8.36328125,133,-178.0,0.0
4283,8.365234375,133,-155.0,0.0
4284,8.3671875,133,-139.0,0.0
4285,8.369140625,133,-172.0,0.0
4286,8.37109375,133,-197.0,0.0
4287,8.373046875,133,-189.0,0.0
4288,8.375,134,-178.0,0.0
4289,8.376953125,134,-182.0,0.0
4290,8.37890625,134,-213.0,0.0
4291,8.380859375,134,-226.0,0.0
4292,8.3828125,134,-215.0,0.0
4293,8.384765625,134,-217.0,0.0
4294,8.38671875,134,-216.0,0.0
4295,8.388671875,134,-194.0,0.0
4296,8.390625,134,-165.0,0.0
4297,8.392578125,134,-161.0,0.0
4298,8.39453125,134,-184.0,0.0
4299,8.396484375,134,-201.0,0.0
4300,8.3984375,134,-221.0,0.0
4301,8.400390625,134,-219.0,0.0
4302,8.40234375,134,-165.0,0.0
4303,8.404296875,134,-117.0,0.0
4304,8.40625,134,-138.0,0.0
4305,8.408203125,134,-211.0,0.0
4306,8.41015625,134,-266.0,0.0
4307,8.412109375,134,-260.0,0.0
4308,8.4140625,134,-195.0,0.0
4309,8.416015625,134,-123.0,0.0
4310,8.41796875,134,-104.0,0.0
4311,8.419921875,134,-140.0,0.0
4312,8.421875,134,-162.0,0.0
4313,8.423828125,134,-162.0,0.0
4314,8.42578125,134,-178.0,0.0
4315,8.427734375,134,-190.0,0.0
4316,8.4296875,134,-179.0,0.0
4317,8.431640625,134,-148.0,0.0
4318,8.43359375,134,-161.0,0.0
4319,8.435546875,134,-196.0,0.0
4320,8.4375,135,-180.0,0.0
4321,8.439453125,135,-125.0,0.0
4322,8.44140625,135,-108.0,0.0
4323,8.443359375,135,-105.0,0.0
4324,8.4453125,135,-106.0,0.0
4325,8.447265625,135,-132.0,0.0
4326,8.44921875,135,-170.0,0.0
4327,8.451171875,135,-179.0,0.0
4328,8.453125,135,-183.0,0.0
4329,8.455078125,135,-185.0,0.0
4330,8.45703125,135,-198.0,0.0
4331,8.458984375,135,-215.0,0.0
4332,8.4609375,135,-219.0,0.0
4333,8.462890625,135,-251.0,0.0
4334,8.46484375,135,-293.0,0.0
4335,8.466796875,135,-276.0,0.0
4336,8.46875,135,-220.0,0.0
4337,8.470703125,135,-202.0,0.0
4338,8.47265625,135,-237.0,0.0
4339,8.474609375,135,-277.0,0.0
4340,8.4765625,135,-266.0,0.0
4341,8.478515625,135,-194.0,0.0
4342,8.48046875,135,-140.0,0.0
4343,8.482421875,135,-167.0,0.0
4344,8.484375,135,-220.0,0.0
4345,8.486328125,135,-221.0,0.0
4346,8.48828125,135,-200.0,0.0
4347,8.490234375,135,-210.0,0.0
4348,8.4921875,135,-226.0,0.0
4349,8.494140625,135,-205.0,0.0
4350,8.49609375,135,-156.0,0.0
4351,8.498046875,135,-130.0,0.0
4352,8.5,136,-124.0,0.0
4353,8.501953125,136,-117.0,0.0
4354,8.50390625,136,-97.0,0.0
4355,8.505859375,136,-60.0,0.0
4356,8.5078125,136,-11.0,0.0
4357,8.509765625,136,24.0,0.0
4358,8.51171875,136,17.0,0.0
4359,8.513671875,136,-19.0,0.0
4360,8.515625,136,-39.0,0.0
4361,8.517578125,136,-39.0,0.0
4362,8.51953125,136,-56.0,0.0
4363,8.521484375,136,-90.0,0.0
4364,8.5234375,136,-124.0,0.0
4365,8.525390625,136,-116.0,0.0
4366,8.52734375,136,-81.0,0.0
4367,8.529296875,136,-73.0,0.0
4368,8.53125,136,-117.0,0.0
4369,8.533203125,136,-179.0,0.0
4370,8.53515625,136,-197.0,0.0
4371,8.537109375,136,-178.0,0.0
4372,8.5390625,136,-118.0,0.0
4373,8.541015625,136,-67.0,0.0
4374,8.54296875,136,-58.0,0.0
4375,8.544921875,136,-72.0,0.0
4376,8.546875,136,-106.0,0.0
4377,8.548828125,136,-162.0,0.0
4378,8.55078125,136,-197.0,0.0
4379,8.552734375,136,-188.0,0.0
4380,8.5546875,136,-135.0,0.0
4381,8.556640625,136,-87.0,0.0
4382,8.55859375,136,-77.0,0.0
4383,8.560546875,136,-34.0,0.0
4384,8.5625,137,13.0,0.0
4385,8.564453125,137,33.0,0.0
4386,8.56640625,137,49.0,0.0
4387,8.568359375,137,66.0,0.0
4388,8.5703125,137,60.0,0.0
4389,8.572265625,137,23.0,0.0
4390,8.57421875,137,-33.0,0.0
4391,8.576171875,137,-75.0,0.0
4392,8.578125,137,-120.0,0.0
4393,8.580078125,137,-134.0,0.0
4394,8.58203125,137,-99.0,0.0
4395,8.583984375,137,-74.0,0.0
4396,8.5859375,137,-82.0,0.0
4397,8.587890625,137,-69.0,0.0
4398,8.58984375,137,-55.0,0.0
4399,8.591796875,137,-60.0,0.0
4400,8.59375,137,-97.0,0.0
4401,8.595703125,137,-122.0,0.0
4402,8.59765625,137,-102.0,0.0
4403,8.599609375,137,-49.0,0.0
4404,8.6015625,137,-17.0,0.0
4405,8.603515625,137,3.0,0.0
4406,8.60546875,137,50.0,0.0
4407,8.607421875,137,105.0,0.0
4408,8.609375,137,137.0,0.0
4409,8.611328125,137,145.0,0.0
4410,8.61328125,137,147.0,0.0
4411,8.615234375,137,149.0,0.0
4412,8.6171875,137,151.0,0.0
4413,8.619140625,137,154.0,0.0
4414,8.62109375,137,169.0,0.0
4415,8.623046875,137,204.0,0.0
4416,8.625,138,218.0,0.0
4417,8.626953125,138,200.0,0.0
4418,8.62890625,138,198.0,0.0
4419,8.630859375,138,233.0,0.0
4420,8.6328125,138,299.0,0.0
4421,8.634765625,138,333.0,0.0
4422,8.63671875,138,309.0,0.0
4423,8.638671875,138,259.0,0.0
4424,8.640625,138,264.0,0.0
4425,8.642578125,138,315.0,0.0
4426,8.64453125,138,337.0,0.0
4427,8.646484375,138,324.0,0.0
4428,8.6484375,138,312.0,0.0
4429,8.650390625,138,327.0,0.0
4430,8.65234375,138,352.0,0.0
4431,8.654296875,138,370.0,0.0
4432,8.65625,138,386.0,0.0
4433,8.658203125,138,368.0,0.0
4434,8.66015625,138,342.0,0.0
4435,8.662109375,138,361.0,0.0
4436,8.6640625,138,400.0,0.0
4437,8.666015625,138,428.0,0.0
4438,8.66796875,138,443.0,0.0
4439,8.669921875,138,418.0,0.0
4440,8.671875,138,402.0,0.0
4441,8.673828125,138,427.0,0.0
4442,8.67578125,138,442.0,0.0
4443,8.677734375,138,432.0,0.0
4444,8.6796875,138,406.0,0.0
4445,8.681640625,138,400.0,0.0
4446,8.68359375,138,425.0,0.0
4447,8.685546875,138,443.0,0.0
4448,8.6875,139,440.0,0.0
4449,8.689453125,139,438.0,0.0
4450,8.69140625,139,440.0,0.0
4451,8.693359375,139,437.0,0.0
4452,8.6953125,139,438.0,0.0
4453,8.697265625,139,437.0,0.0
4454,8.69921875,139,423.0,0.0
4455,8.701171875,139,406.0,0.0
4456,8.703125,139,400.0,0.0
4457,8.705078125,139,403.0,0.0
4458,8.70703125,139,406.0,0.0
4459,8.708984375,139,391.0,0.0
4460,8.7109375,139,374.0,0.0
4461,8.712890625,139,361.0,0.0
4462,8.71484375,139,361.0,0.0
4463,8.716796875,139,385.0,0.0
4464,8.71875,139,396.0,0.0
4465,8.720703125,139,397.0,0.0
4466,8.72265625,139,404.0,0.0
4467,8.724609375,139,397.0,0.0
4468,8.7265625,139,379.0,0.0
4469,8.728515625,139,342.0,0.0
4470,8.73046875,139,305.0,0.0
4471,8.732421875,139,295.0,0.0
4472,8.734375,139,316.0,0.0
4473,8.736328125,139,328.0,0.0
4474,8.73828125,139,311.0,0.0
4475,8.740234375,139,296.0,0.0
4476,8.7421875,139,292.0,0.0
4477,8.744140625,139,294.0,0.0
4478,8.74609375,139,293.0,0.0
4479,8.748046875,139,289.0,0.0
4480,8.75,140,281.0,0.0
4481,8.751953125,140,266.0,0.0
4482,8.75390625,140,237.0,0.0
4483,8.755859375,140,219.0,0.0
4484,8.7578125,140,220.0,0.0
4485,8.759765625,140,228.0,0.0
4486,8.76171875,140,248.0,0.0
4487,8.763671875,140,279.0,0.0
4488,8.765625,140,290.0,0.0
4489,8.767578125,140,275.0,0.0
4490,8.76953125,140,263.0,0.0
4491,8.771484375,140,244.0,0.0
4492,8.7734375,140,220.0,0.0
4493,8.775390625,140,201.0,0.0
4494,8.77734375,140,180.0,0.0
4495,8.779296875,140,150.0,0.0
4496,8.78125,140,139.0,0.0
4497,8.783203125,140,155.0,0.0
4498,8.78515625,140,176.0,0.0
4499,8.787109375,140,182.0,0.0
4500,8.7890625,140,204.0,0.0
4501,8.791015625,140,256.0,0.0
4502,8.79296875,140,273.0,0.0
4503,8.794921875,140,253.0,0.0
4504,8.796875,140,219.0,0.0
4505,8.798828125,140,192.0,0.0
4506,8.80078125,140,169.0,0.0
4507,8.802734375,140,145.0,0.0
4508,8.8046875,140,116.0,0.0
4509,8.806640625,140,100.0,0.0
4510,8.80859375,140,90.0,0.0
4511,8.810546875,140,99.0,0.0
4512,8.8125,141,117.0,0.0
4513,8.814453125,141,137.0,0.0
4514,8.81640625,141,151.0,0.0
4515,8.818359375,141,139.0,0.0
4516,8.8203125,141,117.0,0.0
4517,8.822265625,141,101.0,0.0
4518,8.82421875,141,90.0,0.0
4519,8.826171875,141,80.0,0.0
4520,8.828125,141,74.0,0.0
4521,8.830078125,141,61.0,0.0
4522,8.83203125,141,39.0,0.0
4523,8.833984375,141,34.0,0.0
4524,8.8359375,141,39.0,0.0
4525,8.837890625,141,41.0,0.0
4526,8.83984375,141,49.0,0.0
4527,8.841796875,141,67.0,0.0
4528,8.84375,141,73.0,0.0
4529,8.845703125,141,84.0,0.0
4530,8.84765625,141,101.0,0.0
4531,8.849609375,141,105.0,0.0
4532,8.8515625,141,89.0,0.0
4533,8.853515625,141,67.0,0.0
4534,8.85546875,141,64.0,0.0
4535,8.857421875,141,82.0,0.0
4536,8.859375,141,96.0,0.0
4537,8.861328125,141,91.0,0.0
4538,8.86328125,141,82.0,0.0
4539,8.865234375,141,77.0,0.0
4540,8.8671875,141,74.0,0.0
4541,8.869140625,141,87.0,0.0
4542,8.87109375,141,105.0,0.0
4543,8.873046875,141,82.0,0.0
4544,8.875,142,35.0,0.0
4545,8.876953125,142,26.0,0.0
4546,8.87890625,142,70.0,0.0
4547,8.880859375,142,102.0,0.0
4548,8.8828125,142,101.0,0.0
4549,8.884765625,142,99.0,0.0
4550,8.88671875,142,96.0,0.0
4551,8.888671875,142,88.0,0.0
4552,8.890625,142,83.0,0.0
4553,8.892578125,142,92.0,0.0
4554,8.89453125,142,97.0,0.0
4555,8.896484375,142,89.0,0.0
4556,8.8984375,142,82.0,0.0
4557,8.900390625,142,69.0,0.0
4558,8.90234375,142,61.0,0.0
4559,8.904296875,142,70.0,0.0
4560,8.90625,142,71.0,0.0
4561,8.908203125,142,58.0,0.0
4562,8.91015625,142,42.0,0.0
4563,8.912109375,142,26.0,0.0
4564,8.9140625,142,21.0,0.0
4565,8.916015625,142,26.0,0.0
4566,8.91796875,142,32.0,0.0
4567,8.919921875,142,32.0,0.0
4568,8.921875,142,28.0,0.0
4569,8.923828125,142,48.0,0.0
4570,8.92578125,142,74.0,0.0
4571,8.927734375,142,92.0,0.0
4572,8.9296875,142,91.0,0.0
4573,8.931640625,142,69.0,0.0
4574,8.93359375,142,26.0,0.0
4575,8.935546875,142,2.0,0.0
4576,8.9375,143,17.0,0.0
4577,8.939453125,143,39.0,0.0
4578,8.94140625,143,61.0,0.0
4579,8.943359375,143,93.0,0.0
4580,8.9453125,143,105.0,0.0
4581,8.947265625,143,89.0,0.0
4582,8.94921875,143,66.0,0.0
4583,8.951171875,143,60.0,0.0
4584,8.953125,143,66.0,0.0
4585,8.955078125,143,65.0,0.0
4586,8.95703125,143,73.0,0.0
4587,8.958984375,143,67.0,0.0
4588,8.9609375,143,51.0,0.0
4589,8.962890625,143,48.0,0.0
4590,8.96484375,143,43.0,0.0
4591,8.966796875,143,34.0,0.0
4592,8.96875,143,32.0,33552.0
4593,8.970703125,143,42.0,0.0
4594,8.97265625,143,54.0,0.0
4595,8.974609375,143,38.0,0.0
4596,8.9765625,143,8.0,0.0
4597,8.978515625,143,-1.0,0.0
4598,8.98046875,143,1.0,0.0
4599,8.982421875,143,-7.0,0.0
4600,8.984375,143,-19.0,0.0
4601,8.986328125,143,-13.0,0.0
4602,8.98828125,143,-2.0,0.0
4603,8.990234375,143,18.0,0.0
4604,8.9921875,143,13.0,0.0
4605,8.994140625,143,-8.0,0.0
4606,8.99609375,143,-9.0,0.0
4607,8.998046875,143,1.0,0.0
4608,9.0,144,16.0,0.0
4609,9.001953125,144,23.0,0.0
4610,9.00390625,144,22.0,0.0
4611,9.005859375,144,37.0,0.0
4612,9.0078125,144,74.0,0.0
4613,9.009765625,144,105.0,0.0
4614,9.01171875,144,106.0,0.0
4615,9.013671875,144,85.0,0.0
4616,9.015625,144,67.0,0.0
4617,9.017578125,144,74.0,0.0
4618,9.01953125,144,76.0,0.0
4619,9.021484375,144,52.0,0.0
4620,9.0234375,144,39.0,0.0
4621,9.025390625,144,57.0,0.0
4622,9.02734375,144,86.0,0.0
4623,9.029296875,144,103.0,0.0
4624,9.03125,144,103.0,0.0
4625,9.033203125,144,84.0,0.0
4626,9.03515625,144,81.0,0.0
4627,9.037109375,144,97.0,0.0
4628,9.0390625,144,100.0,0.0
4629,9.041015625,144,86.0,0.0
4630,9.04296875,144,70.0,0.0
4631,9.044921875,144,68.0,0.0
4632,9.046875,144,71.0,0.0
4633,9.048828125,144,66.0,0.0
4634,9.05078125,144,38.0,0.0
4635,9.052734375,144,6.0,0.0
4636,9.0546875,144,20.0,0.0
4637,9.056640625,144,59.0,0.0
4638,9.05859375,144,74.0,0.0
4639,9.060546875,144,65.0,0.0
4640,9.0625,145,65.0,0.0
4641,9.064453125,145,88.0,0.0
4642,9.06640625,145,99.0,0.0
4643,9.068359375,145,107.0,0.0
4644,9.0703125,145,103.0,0.0
4645,9.072265625,145,84.0,0.0
4646,9.07421875,145,51.0,0.0
4647,9.076171875,145,29.0,0.0
4648,9.078125,145,51.0,0.0
4649,9.080078125,145,76.0,0.0
4650,9.08203125,145,75.0,0.0
4651,9.083984375,145,57.0,0.0
4652,9.0859375,145,58.0,0.0
4653,9.087890625,145,74.0,0.0
4654,9.08984375,145,85.0,0.0
4655,9.091796875,145,68.0,0.0
4656,9.09375,145,34.0,0.0
4657,9.095703125,145,10.0,0.0
4658,9.09765625,145,16.0,0.0
4659,9.099609375,145,34.0,0.0
4660,9.1015625,145,48.0,0.0
4661,9.103515625,145,60.0,0.0
4662,9.10546875,145,86.0,0.0
4663,9.107421875,145,74.0,0.0
4664,9.109375,145,24.0,0.0
4665,9.111328125,145,1.0,0.0
4666,9.11328125,145,18.0,0.0
4667,9.115234375,145,48.0,0.0
4668,9.1171875,145,57.0,0.0
4669,9.119140625,145,70.0,0.0
4670,9.12109375,145,80.0,0.0
4671,9.123046875,145,69.0,0.0
4672,9.125,146,52.0,0.0
4673,9.126953125,146,53.0,0.0
4674,9.12890625,146,68.0,0.0
4675,9.130859375,146,74.0,0.0
4676,9.1328125,146,75.0,0.0
4677,9.134765625,146,72.0,0.0
4678,9.13671875,146,40.0,0.0
4679,9.138671875,146,11.0,0.0
4680,9.140625,146,-4.0,0.0
4681,9.142578125,146,-5.0,0.0
4682,9.14453125,146,22.0,0.0
4683,9.146484375,146,51.0,0.0
4684,9.1484375,146,51.0,0.0
4685,9.150390625,146,51.0,0.0
4686,9.15234375,146,43.0,0.0
4687,9.154296875,146,39.0,0.0
4688,9.15625,146,53.0,0.0
4689,9.158203125,146,84.0,0.0
4690,9.16015625,146,106.0,0.0
4691,9.162109375,146,88.0,0.0
4692,9.1640625,146,59.0,0.0
4693,9.166015625,146,44.0,0.0
4694,9.16796875,146,49.0,0.0
4695,9.169921875,146,76.0,0.0
4696,9.171875,146,114.0,0.0
4697,9.173828125,146,145.0,0.0
4698,9.17578125,146,156.0,0.0
4699,9.177734375,146,148.0,0.0
4700,9.1796875,146,148.0,0.0
4701,9.181640625,146,131.0,0.0
4702,9.18359375,146,98.0,0.0
4703,9.185546875,146,74.0,0.0
4704,9.1875,147,56.0,0.0
4705,9.189453125,147,39.0,0.0
4706,9.19140625,147,21.0,0.0
4707,9.193359375,147,-5.0,0.0
4708,9.1953125,147,-35.0,0.0
4709,9.197265625,147,-42.0,0.0
4710,9.19921875,147,-30.0,0.0
4711,9.201171875,147,-13.0,0.0
4712,9.203125,147,-10.0,0.0
4713,9.205078125,147,-9.0,0.0
4714,9.20703125,147,4.0,0.0
4715,9.208984375,147,17.0,0.0
4716,9.2109375,147,17.0,0.0
4717,9.212890625,147,21.0,0.0
4718,9.21484375,147,19.0,0.0
4719,9.216796875,147,20.0,33552.0
4720,9.21875,147,48.0,0.0
4721,9.220703125,147,50.0,0.0
4722,9.22265625,147,33.0,0.0
4723,9.224609375,147,29.0,0.0
4724,9.2265625,147,44.0,0.0
4725,9.228515625,147,48.0,0.0
4726,9.23046875,147,39.0,0.0
4727,9.232421875,147,44.0,0.0
4728,9.234375,147,72.0,0.0
4729,9.236328125,147,58.0,0.0
4730,9.23828125,147,27.0,0.0
4731,9.240234375,147,28.0,0.0
4732,9.2421875,147,34.0,0.0
4733,9.244140625,147,9.0,0.0
4734,9.24609375,147,-13.0,0.0
4735,9.248046875,147,5.0,0.0
4736,9.25,148,55.0,0.0
4737,9.251953125,148,101.0,0.0
4738,9.25390625,148,102.0,0.0
4739,9.255859375,148,71.0,0.0
4740,9.2578125,148,55.0,0.0
4741,9.259765625,148,66.0,0.0
4742,9.26171875,148,91.0,0.0
4743,9.263671875,148,113.0,0.0
4744,9.265625,148,98.0,0.0
4745,9.267578125,148,53.0,0.0
4746,9.26953125,148,45.0,0.0
4747,9.271484375,148,76.0,0.0
4748,9.2734375,148,92.0,0.0
4749,9.275390625,148,82.0,0.0
4750,9.27734375,148,70.0,0.0
4751,9.279296875,148,70.0,0.0
4752,9.28125,148,65.0,0.0
4753,9.283203125,148,61.0,0.0
4754,9.28515625,148,73.0,0.0
4755,9.287109375,148,75.0,0.0
4756,9.2890625,148,66.0,0.0
4757,9.291015625,148,64.0,0.0
4758,9.29296875,148,89.0,0.0
4759,9.294921875,148,139.0,0.0
4760,9.296875,148,161.0,0.0
4761,9.298828125,148,118.0,0.0
4762,9.30078125,148,66.0,0.0
4763,9.302734375,148,44.0,0.0
4764,9.3046875,148,43.0,0.0
4765,9.306640625,148,44.0,0.0
4766,9.30859375,148,53.0,0.0
4767,9.310546875,148,49.0,0.0
4768,9.3125,149,33.0,0.0
4769,9.314453125,149,24.0,0.0
4770,9.31640625,149,40.0,0.0
4771,9.318359375,149,58.0,0.0
4772,9.3203125,149,75.0,0.0
4773,9.322265625,149,75.0,0.0
4774,9.32421875,149,72.0,0.0
4775,9.326171875,149,80.0,0.0
4776,9.328125,149,84.0,0.0
4777,9.330078125,149,69.0,0.0
4778,9.33203125,149,49.0,0.0
4779,9.333984375,149,36.0,0.0
4780,9.3359375,149,48.0,0.0
4781,9.337890625,149,49.0,0.0
4782,9.33984375,149,22.0,0.0
4783,9.341796875,149,10.0,0.0
4784,9.34375,149,21.0,0.0
4785,9.345703125,149,24.0,0.0
4786,9.34765625,149,13.0,0.0
4787,9.349609375,149,0.0,0.0
4788,9.3515625,149,-18.0,0.0
4789,9.353515625,149,-23.0,0.0
4790,9.35546875,149,-6.0,0.0
4791,9.357421875,149,20.0,0.0
4792,9.359375,149,32.0,0.0
4793,9.361328125,149,12.0,0.0
4794,9.36328125,149,3.0,0.0
4795,9.365234375,149,27.0,0.0
4796,9.3671875,149,56.0,0.0
4797,9.369140625,149,60.0,0.0
4798,9.37109375,149,44.0,0.0
4799,9.373046875,149,34.0,0.0
4800,9.375,150,50.0,0.0
4801,9.376953125,150,59.0,0.0
4802,9.37890625,150,48.0,0.0
4803,9.380859375,150,45.0,0.0
4804,9.3828125,150,53.0,0.0
4805,9.384765625,150,56.0,0.0
4806,9.38671875,150,68.0,0.0
4807,9.388671875,150,83.0,0.0
4808,9.390625,150,93.0,0.0
4809,9.392578125,150,98.0,0.0
4810,9.39453125,150,96.0,0.0
4811,9.396484375,150,85.0,0.0
4812,9.3984375,150,80.0,0.0
4813,9.400390625,150,82.0,0.0
4814,9.40234375,150,96.0,0.0
4815,9.404296875,150,135.0,0.0
4816,9.40625,150,163.0,0.0
4817,9.408203125,150,154.0,0.0
4818,9.41015625,150,132.0,0.0
4819,9.412109375,150,132.0,0.0
4820,9.4140625,150,135.0,0.0
4821,9.416015625,150,119.0,0.0
4822,9.41796875,150,98.0,0.0
4823,9.419921875,150,81.0,0.0
4824,9.421875,150,53.0,0.0
4825,9.423828125,150,44.0,0.0
4826,9.42578125,150,44.0,0.0
4827,9.427734375,150,26.0,0.0
4828,9.4296875,150,41.0,0.0
4829,9.431640625,150,92.0,0.0
4830,9.43359375,150,102.0,0.0
4831,9.435546875,150,57.0,0.0
4832,9.4375,151,25.0,0.0
4833,9.439453125,151,37.0,0.0
4834,9.44140625,151,59.0,0.0
4835,9.443359375,151,57.0,0.0
4836,9.4453125,151,42.0,0.0
4837,9.447265625,151,39.0,0.0
4838,9.44921875,151,49.0,0.0
4839,9.451171875,151,72.0,0.0
4840,9.453125,151,81.0,0.0
4841,9.455078125,151,58.0,0.0
4842,9.45703125,151,27.0,0.0
4843,9.458984375,151,-2.0,0.0
4844,9.4609375,151,-13.0,0.0
4845,9.462890625,151,-12.0,0.0
4846,9.46484375,151,-6.0,0.0
4847,9.466796875,151,-3.0,0.0
4848,9.46875,151,-2.0,0.0
4849,9.470703125,151,8.0,0.0
4850,9.47265625,151,20.0,0.0
4851,9.474609375,151,21.0,0.0
4852,9.4765625,151,12.0,0.0
4853,9.478515625,151,5.0,0.0
4854,9.48046875,151,1.0,0.0
4855,9.482421875,151,17.0,0.0
4856,9.484375,151,42.0,0.0
4857,9.486328125,151,56.0,0.0
4858,9.48828125,151,68.0,0.0
4859,9.490234375,151,85.0,0.0
4860,9.4921875,151,106.0,0.0
4861,9.494140625,151,102.0,0.0
4862,9.49609375,151,76.0,0.0
4863,9.498046875,151,53.0,0.0
4864,9.5,152,54.0,0.0
4865,9.501953125,152,74.0,0.0
4866,9.50390625,152,103.0,0.0
4867,9.505859375,152,114.0,0.0
4868,9.5078125,152,99.0,0.0
4869,9.509765625,152,87.0,0.0
4870,9.51171875,152,70.0,0.0
4871,9.513671875,152,43.0,0.0
4872,9.515625,152,32.0,0.0
4873,9.517578125,152,13.0,0.0
4874,9.51953125,152,-22.0,0.0
4875,9.521484375,152,-18.0,0.0
4876,9.5234375,152,11.0,0.0
4877,9.525390625,152,11.0,0.0
4878,9.52734375,152,-4.0,0.0
4879,9.529296875,152,1.0,0.0
4880,9.53125,152,22.0,0.0
4881,9.533203125,152,21.0,0.0
4882,9.53515625,152,-3.0,0.0
4883,9.537109375,152,-18.0,0.0
4884,9.5390625,152,-4.0,0.0
4885,9.541015625,152,1.0,0.0
4886,9.54296875,152,-4.0,0.0
4887,9.544921875,152,-1.0,0.0
4888,9.546875,152,5.0,0.0
4889,9.548828125,152,-2.0,0.0
4890,9.55078125,152,-2.0,0.0
4891,9.552734375,152,4.0,0.0
4892,9.5546875,152,-2.0,0.0
4893,9.556640625,152,-3.0,0.0
4894,9.55859375,152,8.0,0.0
4895,9.560546875,152,21.0,0.0
4896,9.5625,153,18.0,0.0
4897,9.564453125,153,7.0,0.0
4898,9.56640625,153,-5.0,0.0
4899,9.568359375,153,-12.0,0.0
4900,9.5703125,153,3.0,0.0
4901,9.572265625,153,2.0,0.0
4902,9.57421875,153,-21.0,0.0
4903,9.576171875,153,-19.0,0.0
4904,9.578125,153,11.0,0.0
4905,9.580078125,153,32.0,0.0
4906,9.58203125,153,16.0,0.0
4907,9.583984375,153,-19.0,0.0
4908,9.5859375,153,-23.0,0.0
4909,9.587890625,153,-2.0,0.0
4910,9.58984375,153,10.0,0.0
4911,9.591796875,153,19.0,0.0
4912,9.59375,153,27.0,0.0
4913,9.595703125,153,43.0,0.0
4914,9.59765625,153,54.0,0.0
4915,9.599609375,153,57.0,0.0
4916,9.6015625,153,61.0,0.0
4917,9.603515625,153,70.0,0.0
4918,9.60546875,153,73.0,0.0
4919,9.607421875,153,58.0,0.0
4920,9.609375,153,35.0,0.0
4921,9.611328125,153,34.0,0.0
4922,9.61328125,153,38.0,0.0
4923,9.615234375,153,36.0,0.0
4924,9.6171875,153,16.0,0.0
4925,9.619140625,153,12.0,0.0
4926,9.62109375,153,50.0,0.0
4927,9.623046875,153,65.0,0.0
4928,9.625,154,38.0,0.0
4929,9.626953125,154,24.0,0.0
4930,9.62890625,154,35.0,0.0
4931,9.630859375,154,42.0,0.0
4932,9.6328125,154,52.0,0.0
4933,9.634765625,154,67.0,0.0
4934,9.63671875,154,71.0,0.0
4935,9.638671875,154,61.0,0.0
4936,9.640625,154,43.0,0.0
4937,9.642578125,154,39.0,0.0
4938,9.64453125,154,38.0,0.0
4939,9.646484375,154,35.0,0.0
4940,9.6484375,154,51.0,0.0
4941,9.650390625,154,69.0,0.0
4942,9.65234375,154,48.0,0.0
4943,9.654296875,154,-5.0,0.0
4944,9.65625,154,-42.0,0.0
4945,9.658203125,154,-38.0,0.0
4946,9.66015625,154,5.0,0.0
4947,9.662109375,154,36.0,0.0
4948,9.6640625,154,12.0,0.0
4949,9.666015625,154,-13.0,0.0
4950,9.66796875,154,2.0,0.0
4951,9.669921875,154,29.0,0.0
4952,9.671875,154,37.0,0.0
4953,9.673828125,154,37.0,0.0
4954,9.67578125,154,45.0,0.0
4955,9.677734375,154,66.0,0.0
4956,9.6796875,154,51.0,0.0
4957,9.681640625,154,21.0,0.0
4958,9.68359375,154,9.0,0.0
4959,9.685546875,154,12.0,0.0
4960,9.6875,155,48.0,0.0
4961,9.689453125,155,81.0,0.0
4962,9.69140625,155,91.0,0.0
4963,9.693359375,155,81.0,0.0
4964,9.6953125,155,60.0,0.0
4965,9.697265625,155,52.0,0.0
4966,9.69921875,155,76.0,0.0
4967,9.701171875,155,124.0,0.0
4968,9.703125,155,156.0,0.0
4969,9.705078125,155,161.0,0.0
4970,9.70703125,155,138.0,0.0
4971,9.708984375,155,103.0,0.0
4972,9.7109375,155,81.0,0.0
4973,9.712890625,155,88.0,0.0
4974,9.71484375,155,113.0,0.0
4975,9.716796875,155,130.0,0.0
4976,9.71875,155,116.0,0.0
4977,9.720703125,155,81.0,0.0
4978,9.72265625,155,42.0,0.0
4979,9.724609375,155,5.0,0.0
4980,9.7265625,155,-40.0,0.0
4981,9.728515625,155,-50.0,0.0
4982,9.73046875,155,-4.0,0.0
4983,9.732421875,155,49.0,0.0
4984,9.734375,155,81.0,0.0
4985,9.736328125,155,90.0,0.0
4986,9.73828125,155,85.0,0.0
4987,9.740234375,155,83.0,0.0
4988,9.7421875,155,92.0,0.0
4989,9.744140625,155,93.0,0.0
4990,9.74609375,155,75.0,0.0
4991,9.748046875,155,35.0,0.0
4992,9.75,156,-18.0,0.0
4993,9.751953125,156,-42.0,0.0
4994,9.75390625,156,-30.0,0.0
4995,9.755859375,156,-30.0,0.0
4996,9.7578125,156,-57.0,0.0
4997,9.759765625,156,-78.0,0.0
4998,9.76171875,156,-72.0,0.0
4999,9.763671875,156,-42.0,0.0
5000,9.765625,156,-17.0,0.0
5001,9.767578125,156,-22.0,0.0
5002,9.76953125,156,-50.0,0.0
5003,9.771484375,156,-54.0,0.0
5004,9.7734375,156,-35.0,0.0
5005,9.775390625,156,-18.0,0.0
5006,9.77734375,156,-22.0,0.0
5007,9.779296875,156,-36.0,0.0
5008,9.78125,156,-41.0,0.0
5009,9.783203125,156,-42.0,0.0
5010,9.78515625,156,-41.0,0.0
5011,9.787109375,156,-44.0,0.0
5012,9.7890625,156,-59.0,0.0
5013,9.791015625,156,-67.0,0.0
5014,9.79296875,156,-49.0,0.0
5015,9.794921875,156,-44.0,0.0
5016,9.796875,156,-70.0,0.0
5017,9.798828125,156,-76.0,0.0
5018,9.80078125,156,-54.0,0.0
5019,9.802734375,156,-26.0,0.0
5020,9.8046875,156,-18.0,0.0
5021,9.806640625,156,-11.0,0.0
5022,9.80859375,156,-5.0,0.0
5023,9.810546875,156,4.0,0.0
5024,9.8125,157,19.0,0.0
5025,9.814453125,157,38.0,0.0
5026,9.81640625,157,54.0,0.0
5027,9.818359375,157,74.0,0.0
5028,9.8203125,157,90.0,0.0
5029,9.822265625,157,84.0,0.0
5030,9.82421875,157,74.0,0.0
5031,9.826171875,157,81.0,0.0
5032,9.828125,157,85.0,0.0
5033,9.830078125,157,72.0,0.0
5034,9.83203125,157,53.0,0.0
5035,9.833984375,157,49.0,0.0
5036,9.8359375,157,53.0,0.0
5037,9.837890625,157,54.0,0.0
5038,9.83984375,157,43.0,0.0
5039,9.841796875,157,25.0,0.0
5040,9.84375,157,36.0,0.0
5041,9.845703125,157,55.0,0.0
5042,9.84765625,157,38.0,0.0
5043,9.849609375,157,6.0,0.0
5044,9.8515625,157,-4.0,0.0
5045,9.853515625,157,5.0,0.0
5046,9.85546875,157,3.0,0.0
5047,9.857421875,157,-25.0,0.0
5048,9.859375,157,-34.0,0.0
5049,9.861328125,157,-3.0,0.0
5050,9.86328125,157,20.0,0.0
5051,9.865234375,157,4.0,0.0
5052,9.8671875,157,-4.0,0.0
5053,9.869140625,157,4.0,0.0
5054,9.87109375,157,16.0,0.0
5055,9.873046875,157,39.0,0.0
5056,9.875,158,67.0,0.0
5057,9.876953125,158,86.0,0.0
5058,9.87890625,158,92.0,0.0
5059,9.880859375,158,86.0,0.0
5060,9.8828125,158,65.0,0.0
5061,9.884765625,158,51.0,0.0
5062,9.88671875,158,45.0,0.0
5063,9.888671875,158,60.0,0.0
5064,9.890625,158,98.0,0.0
5065,9.892578125,158,106.0,0.0
5066,9.89453125,158,66.0,0.0
5067,9.896484375,158,13.0,0.0
5068,9.8984375,158,4.0,0.0
5069,9.900390625,158,27.0,0.0
5070,9.90234375,158,33.0,0.0
5071,9.904296875,158,21.0,0.0
5072,9.90625,158,2.0,0.0
5073,9.908203125,158,-8.0,0.0
5074,9.91015625,158,-19.0,0.0
5075,9.912109375,158,-18.0,0.0
5076,9.9140625,158,19.0,0.0
5077,9.916015625,158,55.0,0.0
5078,9.91796875,158,64.0,0.0
5079,9.919921875,158,44.0,0.0
5080,9.921875,158,21.0,0.0
5081,9.923828125,158,11.0,0.0
5082,9.92578125,158,10.0,0.0
5083,9.927734375,158,-2.0,0.0
5084,9.9296875,158,-12.0,0.0
5085,9.931640625,158,8.0,0.0
5086,9.93359375,158,51.0,0.0
5087,9.935546875,158,71.0,0.0
5088,9.9375,159,76.0,0.0
5089,9.939453125,159,82.0,0.0
5090,9.94140625,159,87.0,0.0
5091,9.943359375,159,92.0,0.0
5092,9.9453125,159,92.0,0.0
5093,9.947265625,159,66.0,0.0
5094,9.94921875,159,19.0,0.0
5095,9.951171875,159,26.0,0.0
5096,9.953125,159,72.0,0.0
5097,9.955078125,159,84.0,0.0
5098,9.95703125,159,72.0,0.0
5099,9.958984375,159,76.0,0.0
5100,9.9609375,159,87.0,0.0
5101,9.962890625,159,80.0,0.0
5102,9.96484375,159,73.0,0.0
5103,9.966796875,159,101.0,0.0
5104,9.96875,159,130.0,0.0
5105,9.970703125,159,123.0,0.0
5106,9.97265625,159,107.0,0.0
5107,9.974609375,159,100.0,0.0
5108,9.9765625,159,98.0,0.0
5109,9.978515625,159,100.0,0.0
5110,9.98046875,159,98.0,0.0
5111,9.982421875,159,76.0,0.0
5112,9.984375,159,64.0,0.0
5113,9.986328125,159,71.0,0.0
5114,9.98828125,159,69.0,0.0
5115,9.990234375,159,58.0,0.0
5116,9.9921875,159,60.0,0.0
5117,9.994140625,159,83.0,0.0
5118,9.99609375,159,113.0,0.0
5119,9.998046875,159,116.0,0.0
5120,10.0,160,107.0,0.0
5121,10.001953125,160,86.0,0.0
5122,10.00390625,160,56.0,0.0
5123,10.005859375,160,42.0,0.0
5124,10.0078125,160,45.0,0.0
5125,10.009765625,160,65.0,0.0
5126,10.01171875,160,80.0,0.0
5127,10.013671875,160,81.0,0.0
5128,10.015625,160,74.0,0.0
5129,10.017578125,160,68.0,0.0
5130,10.01953125,160,56.0,0.0
5131,10.021484375,160,56.0,0.0
5132,10.0234375,160,83.0,0.0
5133,10.025390625,160,84.0,0.0
5134,10.02734375,160,70.0,0.0
5135,10.029296875,160,56.0,0.0
5136,10.03125,160,53.0,0.0
5137,10.033203125,160,44.0,0.0
5138,10.03515625,160,36.0,0.0
5139,10.037109375,160,27.0,0.0
5140,10.0390625,160,19.0,0.0
5141,10.041015625,160,23.0,0.0
5142,10.04296875,160,38.0,0.0
5143,10.044921875,160,48.0,0.0
5144,10.046875,160,67.0,0.0
5145,10.048828125,160,91.0,0.0
5146,10.05078125,160,106.0,0.0
5147,10.052734375,160,113.0,0.0
5148,10.0546875,160,117.0,0.0
5149,10.056640625,160,124.0,0.0
5150,10.05859375,160,124.0,0.0
5151,10.060546875,160,107.0,0.0
5152,10.0625,161,102.0,0.0
5153,10.064453125,161,91.0,0.0
5154,10.06640625,161,72.0,0.0
5155,10.068359375,161,48.0,0.0
5156,10.0703125,161,39.0,0.0
5157,10.072265625,161,43.0,0.0
5158,10.07421875,161,53.0,0.0
5159,10.076171875,161,82.0,0.0
5160,10.078125,161,106.0,0.0
5161,10.080078125,161,101.0,0.0
5162,10.08203125,161,81.0,0.0
5163,10.083984375,161,64.0,0.0
5164,10.0859375,161,59.0,0.0
5165,10.087890625,161,25.0,0.0
5166,10.08984375,161,-10.0,0.0
5167,10.091796875,161,1.0,0.0
5168,10.09375,161,29.0,0.0
5169,10.095703125,161,49.0,0.0
5170,10.09765625,161,48.0,0.0
5171,10.099609375,161,48.0,0.0
5172,10.1015625,161,58.0,0.0
5173,10.103515625,161,76.0,0.0
5174,10.10546875,161,86.0,0.0
5175,10.107421875,161,76.0,0.0
5176,10.109375,161,56.0,0.0
5177,10.111328125,161,35.0,0.0
5178,10.11328125,161,28.0,0.0
5179,10.115234375,161,37.0,0.0
5180,10.1171875,161,50.0,0.0
5181,10.119140625,161,57.0,0.0
5182,10.12109375,161,68.0,0.0
5183,10.123046875,161,83.0,0.0
5184,10.125,162,83.0,0.0
5185,10.126953125,162,54.0,0.0
5186,10.12890625,162,35.0,0.0
