,Time:512Hz,Epoch,Electrode,Event Id
1024,2.0,32,-250.0,0.0
1025,2.001953125,32,-236.0,0.0
1026,2.00390625,32,-219.0,0.0
1027,2.005859375,32,-193.0,0.0
1028,2.0078125,32,-153.0,0.0
1029,2.009765625,32,-124.0,0.0
1030,2.01171875,32,-134.0,0.0
1031,2.013671875,32,-161.0,0.0
1032,2.015625,32,-164.0,0.0
1033,2.017578125,32,-132.0,0.0
1034,2.01953125,32,-92.0,0.0
1035,2.021484375,32,-72.0,0.0
1036,2.0234375,32,-46.0,0.0
1037,2.025390625,32,-22.0,0.0
1038,2.02734375,32,-2.0,0.0
1039,2.029296875,32,13.0,0.0
1040,2.03125,32,21.0,0.0
1041,2.033203125,32,29.0,0.0
1042,2.03515625,32,58.0,0.0
1043,2.037109375,32,98.0,0.0
1044,2.0390625,32,106.0,0.0
1045,2.041015625,32,83.0,0.0
1046,2.04296875,32,69.0,0.0
1047,2.044921875,32,81.0,0.0
1048,2.046875,32,113.0,0.0
1049,2.048828125,32,140.0,0.0
1050,2.05078125,32,130.0,0.0
1051,2.052734375,32,108.0,0.0
1052,2.0546875,32,106.0,0.0
1053,2.056640625,32,85.0,0.0
1054,2.05859375,32,49.0,0.0
1055,2.060546875,32,37.0,0.0
1056,2.0625,33,44.0,0.0
1057,2.064453125,33,40.0,0.0
1058,2.06640625,33,12.0,0.0
1059,2.068359375,33,-3.0,0.0
1060,2.0703125,33,-1.0,0.0
1061,2.072265625,33,3.0,0.0
1062,2.07421875,33,-11.0,0.0
1063,2.076171875,33,-36.0,0.0
1064,2.078125,33,-40.0,0.0
1065,2.080078125,33,-21.0,0.0
1066,2.08203125,33,24.0,0.0
1067,2.083984375,33,83.0,0.0
1068,2.0859375,33,102.0,0.0
1069,2.087890625,33,91.0,0.0
1070,2.08984375,33,54.0,0.0
1071,2.091796875,33,13.0,0.0
1072,2.09375,33,1.0,0.0
1073,2.095703125,33,27.0,0.0
1074,2.09765625,33,61.0,0.0
1075,2.099609375,33,57.0,0.0
1076,2.1015625,33,19.0,0.0
1077,2.103515625,33,35.0,0.0
1078,2.10546875,33,85.0,0.0
1079,2.107421875,33,104.0,0.0
1080,2.109375,33,98.0,0.0
1081,2.111328125,33,123.0,0.0
1082,2.11328125,33,157.0,0.0
1083,2.115234375,33,133.0,0.0
1084,2.1171875,33,51.0,0.0
1085,2.119140625,33,-28.0,0.0
1086,2.12109375,33,-41.0,0.0
1087,2.123046875,33,-19.0,0.0
1088,2.125,34,6.0,0.0
1089,2.126953125,34,17.0,0.0
1090,2.12890625,34,-6.0,0.0
1091,2.130859375,34,-38.0,0.0
1092,2.1328125,34,-37.0,0.0
1093,2.134765625,34,-23.0,0.0
1094,2.13671875,34,0.0,0.0
1095,2.138671875,34,6.0,0.0
1096,2.140625,34,-37.0,0.0
1097,2.142578125,34,-77.0,0.0
1098,2.14453125,34,-75.0,0.0
1099,2.146484375,34,-62.0,0.0
1100,2.1484375,34,-66.0,0.0
1101,2.150390625,34,-72.0,0.0
1102,2.15234375,34,-73.0,0.0
1103,2.154296875,34,-67.0,0.0
1104,2.15625,34,-53.0,0.0
1105,2.158203125,34,-45.0,0.0
1106,2.16015625,34,-56.0,0.0
1107,2.162109375,34,-87.0,0.0
1108,2.1640625,34,-93.0,0.0
1109,2.166015625,34,-70.0,0.0
1110,2.16796875,34,-41.0,0.0
1111,2.169921875,34,-40.0,0.0
1112,2.171875,34,-21.0,0.0
1113,2.173828125,34,-23.0,0.0
1114,2.17578125,34,-57.0,0.0
1115,2.177734375,34,-71.0,0.0
1116,2.1796875,34,-69.0,0.0
1117,2.181640625,34,-75.0,0.0
1118,2.18359375,34,-77.0,0.0
1119,2.185546875,34,-99.0,0.0
1120,2.1875,35,-137.0,0.0
1121,2.189453125,35,-149.0,0.0
1122,2.19140625,35,-136.0,0.0
1123,2.193359375,35,-118.0,0.0
1124,2.1953125,35,-89.0,0.0
1125,2.197265625,35,-97.0,0.0
1126,2.19921875,35,-148.0,0.0
1127,2.201171875,35,-172.0,0.0
1128,2.203125,35,-134.0,0.0
1129,2.205078125,35,-113.0,0.0
1130,2.20703125,35,-168.0,0.0
1131,2.208984375,35,-203.0,0.0
1132,2.2109375,35,-148.0,0.0
1133,2.212890625,35,-107.0,0.0
1134,2.21484375,35,-130.0,0.0
1135,2.216796875,35,-179.0,0.0
1136,2.21875,35,-186.0,0.0
1137,2.220703125,35,-121.0,0.0
1138,2.22265625,35,-60.0,0.0
1139,2.224609375,35,-11.0,0.0
1140,2.2265625,35,44.0,0.0
1141,2.228515625,35,72.0,0.0
1142,2.23046875,35,28.0,0.0
1143,2.232421875,35,-27.0,0.0
1144,2.234375,35,-38.0,0.0
1145,2.236328125,35,-7.0,0.0
1146,2.23828125,35,7.0,0.0
1147,2.240234375,35,-9.0,0.0
1148,2.2421875,35,-46.0,0.0
1149,2.244140625,35,-74.0,0.0
1150,2.24609375,35,-70.0,0.0
1151,2.248046875,35,-26.0,0.0
1152,2.25,36,9.0,0.0
1153,2.251953125,36,25.0,0.0
1154,2.25390625,36,29.0,0.0
1155,2.255859375,36,23.0,0.0
1156,2.2578125,36,26.0,0.0
1157,2.259765625,36,50.0,0.0
1158,2.26171875,36,50.0,0.0
1159,2.263671875,36,51.0,0.0
1160,2.265625,36,77.0,0.0
1161,2.267578125,36,113.0,0.0
1162,2.26953125,36,132.0,0.0
1163,2.271484375,36,121.0,0.0
1164,2.2734375,36,103.0,0.0
1165,2.275390625,36,103.0,0.0
1166,2.27734375,36,130.0,0.0
1167,2.279296875,36,155.0,0.0
1168,2.28125,36,166.0,0.0
1169,2.283203125,36,184.0,0.0
1170,2.28515625,36,170.0,0.0
1171,2.287109375,36,166.0,0.0
1172,2.2890625,36,178.0,0.0
1173,2.291015625,36,172.0,0.0
1174,2.29296875,36,188.0,0.0
1175,2.294921875,36,234.0,0.0
1176,2.296875,36,288.0,0.0
1177,2.298828125,36,345.0,0.0
1178,2.30078125,36,355.0,0.0
1179,2.302734375,36,304.0,0.0
1180,2.3046875,36,280.0,0.0
1181,2.306640625,36,282.0,0.0
1182,2.30859375,36,257.0,0.0
1183,2.310546875,36,221.0,0.0
1184,2.3125,37,217.0,0.0
1185,2.314453125,37,229.0,0.0
1186,2.31640625,37,214.0,0.0
1187,2.318359375,37,198.0,0.0
1188,2.3203125,37,213.0,0.0
1189,2.322265625,37,242.0,0.0
1190,2.32421875,37,253.0,0.0
1191,2.326171875,37,231.0,0.0
1192,2.328125,37,197.0,0.0
1193,2.330078125,37,160.0,0.0
1194,2.33203125,37,151.0,0.0
1195,2.333984375,37,155.0,0.0
1196,2.3359375,37,184.0,0.0
1197,2.337890625,37,214.0,0.0
1198,2.33984375,37,202.0,0.0
1199,2.341796875,37,187.0,0.0
1200,2.34375,37,182.0,0.0
1201,2.345703125,37,176.0,0.0
1202,2.34765625,37,164.0,0.0
1203,2.349609375,37,141.0,0.0
1204,2.3515625,37,123.0,0.0
1205,2.353515625,37,128.0,0.0
1206,2.35546875,37,151.0,0.0
1207,2.357421875,37,163.0,0.0
1208,2.359375,37,121.0,0.0
1209,2.361328125,37,48.0,0.0
1210,2.36328125,37,-12.0,0.0
1211,2.365234375,37,-20.0,0.0
1212,2.3671875,37,18.0,0.0
1213,2.369140625,37,56.0,0.0
1214,2.37109375,37,57.0,0.0
1215,2.373046875,37,83.0,0.0
1216,2.375,38,119.0,0.0
1217,2.376953125,38,124.0,0.0
1218,2.37890625,38,144.0,0.0
1219,2.380859375,38,156.0,0.0
1220,2.3828125,38,139.0,0.0
1221,2.384765625,38,134.0,0.0
1222,2.38671875,38,140.0,0.0
1223,2.388671875,38,134.0,0.0
1224,2.390625,38,98.0,0.0
1225,2.392578125,38,71.0,0.0
1226,2.39453125,38,83.0,0.0
1227,2.396484375,38,91.0,0.0
1228,2.3984375,38,85.0,0.0
1229,2.400390625,38,74.0,0.0
1230,2.40234375,38,25.0,0.0
1231,2.404296875,38,-39.0,0.0
1232,2.40625,38,-84.0,0.0
1233,2.408203125,38,-78.0,0.0
1234,2.41015625,38,-40.0,0.0
1235,2.412109375,38,-13.0,0.0
1236,2.4140625,38,-22.0,0.0
1237,2.416015625,38,-27.0,0.0
1238,2.41796875,38,-37.0,0.0
1239,2.419921875,38,-57.0,0.0
1240,2.421875,38,-40.0,0.0
1241,2.423828125,38,-26.0,0.0
1242,2.42578125,38,-28.0,0.0
1243,2.427734375,38,-38.0,0.0
1244,2.4296875,38,-41.0,0.0
1245,2.431640625,38,-66.0,0.0
1246,2.43359375,38,-87.0,0.0
1247,2.435546875,38,-73.0,0.0
1248,2.4375,39,-66.0,0.0
1249,2.439453125,39,-61.0,0.0
1250,2.44140625,39,-68.0,0.0
1251,2.443359375,39,-68.0,0.0
1252,2.4453125,39,-57.0,0.0
1253,2.447265625,39,-60.0,0.0
1254,2.44921875,39,-97.0,0.0
1255,2.451171875,39,-110.0,0.0
1256,2.453125,39,-97.0,0.0
1257,2.455078125,39,-76.0,0.0
1258,2.45703125,39,-68.0,0.0
1259,2.458984375,39,-54.0,0.0
1260,2.4609375,39,-29.0,0.0
1261,2.462890625,39,-8.0,0.0
1262,2.46484375,39,-4.0,0.0
1263,2.466796875,39,-22.0,0.0
1264,2.46875,39,-19.0,0.0
1265,2.470703125,39,5.0,0.0
1266,2.47265625,39,16.0,0.0
1267,2.474609375,39,-1.0,0.0
1268,2.4765625,39,-30.0,0.0
1269,2.478515625,39,-45.0,0.0
1270,2.48046875,39,-13.0,0.0
1271,2.482421875,39,32.0,0.0
1272,2.484375,39,26.0,0.0
1273,2.486328125,39,5.0,0.0
1274,2.48828125,39,-3.0,0.0
1275,2.490234375,39,-40.0,0.0
1276,2.4921875,39,-67.0,0.0
1277,2.494140625,39,-59.0,0.0
1278,2.49609375,39,-70.0,0.0
1279,2.498046875,39,-82.0,0.0
1280,2.5,40,-56.0,0.0
1281,2.501953125,40,-26.0,0.0
1282,2.50390625,40,-22.0,0.0
1283,2.505859375,40,-12.0,0.0
1284,2.5078125,40,1.0,0.0
1285,2.509765625,40,8.0,0.0
1286,2.51171875,40,23.0,0.0
1287,2.513671875,40,43.0,0.0
1288,2.515625,40,41.0,0.0
1289,2.517578125,40,36.0,0.0
1290,2.51953125,40,41.0,0.0
1291,2.521484375,40,50.0,0.0
1292,2.5234375,40,35.0,0.0
1293,2.525390625,40,20.0,0.0
1294,2.52734375,40,45.0,0.0
1295,2.529296875,40,60.0,0.0
1296,2.53125,40,68.0,0.0
1297,2.533203125,40,72.0,0.0
1298,2.53515625,40,80.0,0.0
1299,2.537109375,40,66.0,0.0
1300,2.5390625,40,33.0,0.0
1301,2.541015625,40,1.0,0.0
1302,2.54296875,40,-26.0,0.0
1303,2.544921875,40,-42.0,0.0
1304,2.546875,40,-56.0,0.0
1305,2.548828125,40,-46.0,0.0
1306,2.55078125,40,-22.0,0.0
1307,2.552734375,40,-13.0,0.0
1308,2.5546875,40,3.0,0.0
1309,2.556640625,40,34.0,0.0
1310,2.55859375,40,71.0,0.0
1311,2.560546875,40,89.0,0.0
1312,2.5625,41,75.0,0.0
1313,2.564453125,41,72.0,0.0
1314,2.56640625,41,80.0,0.0
1315,2.568359375,41,53.0,0.0
1316,2.5703125,41,22.0,0.0
1317,2.572265625,41,6.0,0.0
1318,2.57421875,41,-5.0,0.0
1319,2.576171875,41,-14.0,0.0
1320,2.578125,41,1.0,0.0
1321,2.580078125,41,83.0,0.0
1322,2.58203125,41,163.0,0.0
1323,2.583984375,41,135.0,0.0
1324,2.5859375,41,57.0,0.0
1325,2.587890625,41,26.0,0.0
1326,2.58984375,41,43.0,0.0
1327,2.591796875,41,83.0,0.0
1328,2.59375,41,65.0,0.0
1329,2.595703125,41,-1.0,0.0
1330,2.59765625,41,-45.0,0.0
1331,2.599609375,41,-41.0,0.0
1332,2.6015625,41,7.0,0.0
1333,2.603515625,41,53.0,0.0
1334,2.60546875,41,50.0,0.0
1335,2.607421875,41,22.0,0.0
1336,2.609375,41,3.0,0.0
1337,2.611328125,41,2.0,0.0
1338,2.61328125,41,-3.0,0.0
1339,2.615234375,41,-17.0,0.0
1340,2.6171875,41,-22.0,0.0
1341,2.619140625,41,-3.0,0.0
1342,2.62109375,41,16.0,0.0
1343,2.623046875,41,6.0,0.0
1344,2.625,42,-6.0,0.0
1345,2.626953125,42,-23.0,0.0
1346,2.62890625,42,-52.0,0.0
1347,2.630859375,42,-86.0,0.0
1348,2.6328125,42,-98.0,0.0
1349,2.634765625,42,-82.0,0.0
1350,2.63671875,42,-51.0,0.0
1351,2.638671875,42,-4.0,0.0
1352,2.640625,42,28.0,0.0
1353,2.642578125,42,51.0,0.0
1354,2.64453125,42,77.0,0.0
1355,2.646484375,42,106.0,0.0
1356,2.6484375,42,128.0,0.0
1357,2.650390625,42,133.0,0.0
1358,2.65234375,42,114.0,0.0
1359,2.654296875,42,116.0,0.0
1360,2.65625,42,151.0,0.0
1361,2.658203125,42,178.0,0.0
1362,2.66015625,42,166.0,0.0
1363,2.662109375,42,168.0,0.0
1364,2.6640625,42,198.0,0.0
1365,2.666015625,42,194.0,0.0
1366,2.66796875,42,163.0,0.0
1367,2.669921875,42,124.0,0.0
1368,2.671875,42,104.0,0.0
1369,2.673828125,42,100.0,0.0
1370,2.67578125,42,88.0,0.0
1371,2.677734375,42,52.0,0.0
1372,2.6796875,42,29.0,0.0
1373,2.681640625,42,65.0,0.0
1374,2.68359375,42,130.0,0.0
1375,2.685546875,42,162.0,0.0
1376,2.6875,43,128.0,0.0
1377,2.689453125,43,83.0,0.0
1378,2.69140625,43,92.0,0.0
1379,2.693359375,43,118.0,0.0
1380,2.6953125,43,120.0,0.0
1381,2.697265625,43,103.0,0.0
1382,2.69921875,43,87.0,0.0
1383,2.701171875,43,81.0,0.0
1384,2.703125,43,89.0,0.0
1385,2.705078125,43,104.0,0.0
1386,2.70703125,43,92.0,0.0
1387,2.708984375,43,68.0,0.0
1388,2.7109375,43,86.0,0.0
1389,2.712890625,43,138.0,0.0
1390,2.71484375,43,179.0,0.0
1391,2.716796875,43,198.0,0.0
1392,2.71875,43,215.0,0.0
1393,2.720703125,43,224.0,0.0
1394,2.72265625,43,209.0,0.0
1395,2.724609375,43,156.0,0.0
1396,2.7265625,43,119.0,0.0
1397,2.728515625,43,104.0,0.0
1398,2.73046875,43,115.0,0.0
1399,2.732421875,43,121.0,0.0
1400,2.734375,43,85.0,0.0
1401,2.736328125,43,68.0,0.0
1402,2.73828125,43,98.0,0.0
1403,2.740234375,43,155.0,0.0
1404,2.7421875,43,195.0,0.0
1405,2.744140625,43,186.0,0.0
1406,2.74609375,43,170.0,0.0
1407,2.748046875,43,172.0,0.0
1408,2.75,44,178.0,0.0
1409,2.751953125,44,170.0,0.0
1410,2.75390625,44,145.0,0.0
1411,2.755859375,44,132.0,0.0
1412,2.7578125,44,104.0,0.0
1413,2.759765625,44,133.0,0.0
1414,2.76171875,44,183.0,0.0
1415,2.763671875,44,189.0,0.0
1416,2.765625,44,178.0,0.0
1417,2.767578125,44,141.0,0.0
1418,2.76953125,44,88.0,0.0
1419,2.771484375,44,44.0,0.0
1420,2.7734375,44,20.0,0.0
1421,2.775390625,44,12.0,0.0
1422,2.77734375,44,20.0,0.0
1423,2.779296875,44,54.0,0.0
1424,2.78125,44,72.0,0.0
1425,2.783203125,44,51.0,0.0
1426,2.78515625,44,35.0,0.0
1427,2.787109375,44,54.0,0.0
1428,2.7890625,44,84.0,0.0
1429,2.791015625,44,86.0,0.0
1430,2.79296875,44,49.0,0.0
1431,2.794921875,44,-2.0,0.0
1432,2.796875,44,-25.0,0.0
1433,2.798828125,44,-10.0,0.0
1434,2.80078125,44,26.0,0.0
1435,2.802734375,44,18.0,0.0
1436,2.8046875,44,-22.0,0.0
1437,2.806640625,44,-13.0,0.0
1438,2.80859375,44,34.0,0.0
1439,2.810546875,44,24.0,0.0
1440,2.8125,45,-6.0,0.0
1441,2.814453125,45,-19.0,0.0
1442,2.81640625,45,-37.0,0.0
1443,2.818359375,45,-55.0,0.0
1444,2.8203125,45,-40.0,0.0
1445,2.822265625,45,4.0,0.0
1446,2.82421875,45,10.0,0.0
1447,2.826171875,45,-36.0,0.0
1448,2.828125,45,-88.0,0.0
1449,2.830078125,45,-84.0,0.0
1450,2.83203125,45,-53.0,0.0
1451,2.833984375,45,-37.0,0.0
1452,2.8359375,45,-66.0,0.0
1453,2.837890625,45,-125.0,0.0
1454,2.83984375,45,-178.0,0.0
1455,2.841796875,45,-189.0,0.0
1456,2.84375,45,-172.0,0.0
1457,2.845703125,45,-158.0,0.0
1458,2.84765625,45,-162.0,0.0
1459,2.849609375,45,-179.0,0.0
1460,2.8515625,45,-190.0,0.0
1461,2.853515625,45,-194.0,0.0
1462,2.85546875,45,-166.0,0.0
1463,2.857421875,45,-124.0,0.0
1464,2.859375,45,-106.0,0.0
1465,2.861328125,45,-94.0,0.0
1466,2.86328125,45,-88.0,0.0
1467,2.865234375,45,-77.0,0.0
1468,2.8671875,45,-66.0,0.0
1469,2.869140625,45,-70.0,0.0
1470,2.87109375,45,-81.0,0.0
1471,2.873046875,45,-55.0,0.0
1472,2.875,46,-7.0,0.0
1473,2.876953125,46,5.0,0.0
1474,2.87890625,46,7.0,0.0
1475,2.880859375,46,29.0,0.0
1476,2.8828125,46,35.0,0.0
1477,2.884765625,46,12.0,0.0
1478,2.88671875,46,3.0,0.0
1479,2.888671875,46,1.0,0.0
1480,2.890625,46,5.0,0.0
1481,2.892578125,46,2.0,0.0
1482,2.89453125,46,-22.0,0.0
1483,2.896484375,46,-24.0,0.0
1484,2.8984375,46,12.0,0.0
1485,2.900390625,46,22.0,0.0
1486,2.90234375,46,33.0,0.0
1487,2.904296875,46,69.0,0.0
1488,2.90625,46,64.0,0.0
1489,2.908203125,46,26.0,0.0
1490,2.91015625,46,12.0,0.0
1491,2.912109375,46,21.0,0.0
1492,2.9140625,46,44.0,0.0
1493,2.916015625,46,58.0,0.0
1494,2.91796875,46,75.0,0.0
1495,2.919921875,46,100.0,0.0
1496,2.921875,46,105.0,0.0
1497,2.923828125,46,86.0,0.0
1498,2.92578125,46,24.0,0.0
1499,2.927734375,46,-36.0,0.0
1500,2.9296875,46,-1.0,0.0
1501,2.931640625,46,139.0,0.0
1502,2.93359375,46,241.0,0.0
1503,2.935546875,46,225.0,0.0
1504,2.9375,47,157.0,0.0
1505,2.939453125,47,131.0,0.0
1506,2.94140625,47,161.0,0.0
1507,2.943359375,47,217.0,0.0
1508,2.9453125,47,225.0,0.0
1509,2.947265625,47,180.0,0.0
1510,2.94921875,47,132.0,0.0
1511,2.951171875,47,113.0,0.0
1512,2.953125,47,129.0,0.0
1513,2.955078125,47,168.0,0.0
1514,2.95703125,47,197.0,0.0
1515,2.958984375,47,201.0,0.0
1516,2.9609375,47,181.0,0.0
1517,2.962890625,47,145.0,0.0
1518,2.96484375,47,137.0,0.0
1519,2.966796875,47,137.0,0.0
1520,2.96875,47,121.0,0.0
1521,2.970703125,47,82.0,0.0
1522,2.97265625,47,55.0,0.0
1523,2.974609375,47,70.0,0.0
1524,2.9765625,47,86.0,0.0
1525,2.978515625,47,84.0,0.0
1526,2.98046875,47,64.0,0.0
1527,2.982421875,47,50.0,0.0
1528,2.984375,47,82.0,0.0
1529,2.986328125,47,112.0,0.0
1530,2.98828125,47,91.0,0.0
1531,2.990234375,47,81.0,0.0
1532,2.9921875,47,120.0,0.0
1533,2.994140625,47,172.0,0.0
1534,2.99609375,47,176.0,0.0
1535,2.998046875,47,132.0,0.0
1536,3.0,48,80.0,0.0
1537,3.001953125,48,36.0,0.0
1538,3.00390625,48,26.0,0.0
1539,3.005859375,48,44.0,0.0
1540,3.0078125,48,48.0,0.0
1541,3.009765625,48,41.0,0.0
1542,3.01171875,48,54.0,0.0
1543,3.013671875,48,87.0,0.0
1544,3.015625,48,96.0,0.0
1545,3.017578125,48,77.0,0.0
1546,3.01953125,48,70.0,0.0
1547,3.021484375,48,64.0,0.0
1548,3.0234375,48,50.0,0.0
1549,3.025390625,48,40.0,0.0
1550,3.02734375,48,33.0,0.0
1551,3.029296875,48,25.0,0.0
1552,3.03125,48,25.0,0.0
1553,3.033203125,48,10.0,0.0
1554,3.03515625,48,-14.0,0.0
1555,3.037109375,48,-4.0,0.0
1556,3.0390625,48,41.0,0.0
1557,3.041015625,48,59.0,0.0
1558,3.04296875,48,25.0,0.0
1559,3.044921875,48,-24.0,0.0
1560,3.046875,48,-66.0,0.0
1561,3.048828125,48,-66.0,0.0
1562,3.05078125,48,-39.0,0.0
1563,3.052734375,48,-23.0,0.0
1564,3.0546875,48,-17.0,0.0
1565,3.056640625,48,-22.0,0.0
1566,3.05859375,48,-45.0,0.0
1567,3.060546875,48,-51.0,0.0
1568,3.0625,49,-26.0,0.0
1569,3.064453125,49,1.0,0.0
1570,3.06640625,49,16.0,0.0
1571,3.068359375,49,-1.0,0.0
1572,3.0703125,49,-9.0,0.0
1573,3.072265625,49,-14.0,0.0
1574,3.07421875,49,-25.0,0.0
1575,3.076171875,49,-22.0,0.0
1576,3.078125,49,-9.0,0.0
1577,3.080078125,49,-5.0,0.0
1578,3.08203125,49,5.0,0.0
1579,3.083984375,49,9.0,0.0
1580,3.0859375,49,-24.0,0.0
1581,3.087890625,49,-22.0,0.0
1582,3.08984375,49,4.0,0.0
1583,3.091796875,49,6.0,0.0
1584,3.09375,49,-40.0,0.0
1585,3.095703125,49,-97.0,0.0
1586,3.09765625,49,-108.0,0.0
1587,3.099609375,49,-98.0,0.0
1588,3.1015625,49,-114.0,0.0
1589,3.103515625,49,-146.0,0.0
1590,3.10546875,49,-173.0,0.0
1591,3.107421875,49,-194.0,0.0
1592,3.109375,49,-194.0,0.0
1593,3.111328125,49,-157.0,0.0
1594,3.11328125,49,-133.0,0.0
1595,3.115234375,49,-132.0,0.0
1596,3.1171875,49,-140.0,0.0
1597,3.119140625,49,-124.0,0.0
1598,3.12109375,49,-94.0,0.0
1599,3.123046875,49,-85.0,0.0
1600,3.125,50,-94.0,0.0
1601,3.126953125,50,-59.0,0.0
1602,3.12890625,50,0.0,0.0
1603,3.130859375,50,45.0,0.0
1604,3.1328125,50,43.0,0.0
1605,3.134765625,50,20.0,0.0
1606,3.13671875,50,17.0,0.0
1607,3.138671875,50,16.0,0.0
1608,3.140625,50,12.0,0.0
1609,3.142578125,50,12.0,0.0
1610,3.14453125,50,-9.0,0.0
1611,3.146484375,50,-40.0,0.0
1612,3.1484375,50,-58.0,0.0
1613,3.150390625,50,-28.0,0.0
1614,3.15234375,50,33.0,0.0
1615,3.154296875,50,60.0,0.0
1616,3.15625,50,48.0,0.0
1617,3.158203125,50,20.0,0.0
1618,3.16015625,50,-11.0,0.0
1619,3.162109375,50,-25.0,0.0
1620,3.1640625,50,-25.0,0.0
1621,3.166015625,50,-34.0,0.0
1622,3.16796875,50,-34.0,0.0
1623,3.169921875,50,-41.0,0.0
1624,3.171875,50,-50.0,0.0
1625,3.173828125,50,-19.0,0.0
1626,3.17578125,50,52.0,0.0
1627,3.177734375,50,84.0,0.0
1628,3.1796875,50,51.0,0.0
1629,3.181640625,50,53.0,0.0
1630,3.18359375,50,58.0,0.0
1631,3.185546875,50,19.0,0.0
1632,3.1875,51,-4.0,0.0
1633,3.189453125,51,-6.0,0.0
1634,3.19140625,51,18.0,0.0
1635,3.193359375,51,40.0,0.0
1636,3.1953125,51,67.0,0.0
1637,3.197265625,51,99.0,0.0
1638,3.19921875,51,121.0,0.0
1639,3.201171875,51,109.0,0.0
1640,3.203125,51,102.0,0.0
1641,3.205078125,51,144.0,0.0
1642,3.20703125,51,169.0,0.0
1643,3.208984375,51,138.0,0.0
1644,3.2109375,51,86.0,0.0
1645,3.212890625,51,69.0,0.0
1646,3.21484375,51,88.0,0.0
1647,3.216796875,51,103.0,0.0
1648,3.21875,51,114.0,0.0
1649,3.220703125,51,129.0,0.0
1650,3.22265625,51,150.0,0.0
1651,3.224609375,51,182.0,0.0
1652,3.2265625,51,188.0,0.0
1653,3.228515625,51,155.0,0.0
1654,3.23046875,51,104.0,0.0
1655,3.232421875,51,66.0,0.0
1656,3.234375,51,55.0,0.0
1657,3.236328125,51,77.0,0.0
1658,3.23828125,51,98.0,0.0
1659,3.240234375,51,116.0,0.0
1660,3.2421875,51,138.0,0.0
1661,3.244140625,51,150.0,0.0
1662,3.24609375,51,148.0,0.0
1663,3.248046875,51,164.0,0.0
1664,3.25,52,220.0,0.0
1665,3.251953125,52,249.0,0.0
1666,3.25390625,52,213.0,0.0
1667,3.255859375,52,156.0,0.0
1668,3.2578125,52,119.0,0.0
1669,3.259765625,52,91.0,0.0
1670,3.26171875,52,98.0,0.0
1671,3.263671875,52,138.0,0.0
1672,3.265625,52,146.0,0.0
1673,3.267578125,52,137.0,0.0
1674,3.26953125,52,146.0,0.0
1675,3.271484375,52,154.0,0.0
1676,3.2734375,52,151.0,0.0
1677,3.275390625,52,167.0,0.0
1678,3.27734375,52,188.0,0.0
1679,3.279296875,52,186.0,0.0
1680,3.28125,52,167.0,0.0
1681,3.283203125,52,154.0,0.0
1682,3.28515625,52,147.0,0.0
1683,3.287109375,52,150.0,0.0
1684,3.2890625,52,172.0,0.0
1685,3.291015625,52,199.0,0.0
1686,3.29296875,52,217.0,0.0
1687,3.294921875,52,203.0,0.0
1688,3.296875,52,182.0,0.0
1689,3.298828125,52,181.0,0.0
1690,3.30078125,52,166.0,0.0
1691,3.302734375,52,130.0,0.0
1692,3.3046875,52,106.0,0.0
1693,3.306640625,52,92.0,0.0
1694,3.30859375,52,99.0,0.0
1695,3.310546875,52,101.0,0.0
1696,3.3125,53,72.0,0.0
1697,3.314453125,53,54.0,0.0
1698,3.31640625,53,60.0,0.0
1699,3.318359375,53,90.0,0.0
1700,3.3203125,53,119.0,0.0
1701,3.322265625,53,136.0,0.0
1702,3.32421875,53,92.0,0.0
1703,3.326171875,53,67.0,0.0
1704,3.328125,53,114.0,0.0
1705,3.330078125,53,172.0,0.0
1706,3.33203125,53,196.0,0.0
1707,3.333984375,53,188.0,0.0
1708,3.3359375,53,148.0,0.0
1709,3.337890625,53,104.0,0.0
1710,3.33984375,53,89.0,0.0
1711,3.341796875,53,100.0,0.0
1712,3.34375,53,99.0,0.0
1713,3.345703125,53,74.0,0.0
1714,3.34765625,53,93.0,0.0
1715,3.349609375,53,157.0,0.0
1716,3.3515625,53,194.0,0.0
1717,3.353515625,53,189.0,0.0
1718,3.35546875,53,198.0,0.0
1719,3.357421875,53,219.0,0.0
1720,3.359375,53,213.0,0.0
1721,3.361328125,53,156.0,0.0
1722,3.36328125,53,122.0,0.0
1723,3.365234375,53,115.0,0.0
1724,3.3671875,53,70.0,0.0
1725,3.369140625,53,-20.0,0.0
1726,3.37109375,53,-55.0,0.0
1727,3.373046875,53,-20.0,0.0
1728,3.375,54,48.0,0.0
1729,3.376953125,54,91.0,0.0
1730,3.37890625,54,119.0,0.0
1731,3.380859375,54,194.0,0.0
1732,3.3828125,54,252.0,0.0
1733,3.384765625,54,242.0,0.0
1734,3.38671875,54,214.0,0.0
1735,3.388671875,54,203.0,0.0
1736,3.390625,54,182.0,0.0
1737,3.392578125,54,128.0,0.0
1738,3.39453125,54,69.0,0.0
1739,3.396484375,54,42.0,0.0
1740,3.3984375,54,58.0,0.0
1741,3.400390625,54,92.0,0.0
1742,3.40234375,54,107.0,0.0
1743,3.404296875,54,71.0,0.0
1744,3.40625,54,21.0,0.0
1745,3.408203125,54,-11.0,0.0
1746,3.41015625,54,-67.0,0.0
1747,3.412109375,54,-97.0,0.0
1748,3.4140625,54,-82.0,0.0
1749,3.416015625,54,-86.0,0.0
1750,3.41796875,54,-93.0,0.0
1751,3.419921875,54,-36.0,0.0
1752,3.421875,54,26.0,0.0
1753,3.423828125,54,55.0,0.0
1754,3.42578125,54,37.0,0.0
1755,3.427734375,54,22.0,0.0
1756,3.4296875,54,20.0,0.0
1757,3.431640625,54,2.0,0.0
1758,3.43359375,54,-43.0,0.0
1759,3.435546875,54,-91.0,0.0
1760,3.4375,55,-92.0,0.0
1761,3.439453125,55,-85.0,0.0
1762,3.44140625,55,-122.0,0.0
1763,3.443359375,55,-164.0,0.0
1764,3.4453125,55,-181.0,0.0
1765,3.447265625,55,-140.0,0.0
1766,3.44921875,55,-109.0,0.0
1767,3.451171875,55,-139.0,0.0
1768,3.453125,55,-194.0,0.0
1769,3.455078125,55,-228.0,0.0
1770,3.45703125,55,-210.0,0.0
1771,3.458984375,55,-131.0,0.0
1772,3.4609375,55,-50.0,0.0
1773,3.462890625,55,-55.0,0.0
1774,3.46484375,55,-170.0,0.0
1775,3.466796875,55,-235.0,0.0
1776,3.46875,55,-216.0,0.0
1777,3.470703125,55,-210.0,0.0
1778,3.47265625,55,-214.0,0.0
1779,3.474609375,55,-173.0,0.0
1780,3.4765625,55,-155.0,0.0
1781,3.478515625,55,-197.0,0.0
1782,3.48046875,55,-238.0,0.0
1783,3.482421875,55,-227.0,0.0
1784,3.484375,55,-145.0,0.0
1785,3.486328125,55,-70.0,0.0
1786,3.48828125,55,-86.0,0.0
1787,3.490234375,55,-108.0,0.0
1788,3.4921875,55,-105.0,0.0
1789,3.494140625,55,-133.0,0.0
1790,3.49609375,55,-132.0,0.0
1791,3.498046875,55,-100.0,0.0
1792,3.5,56,-74.0,0.0
1793,3.501953125,56,-88.0,0.0
1794,3.50390625,56,-150.0,0.0
1795,3.505859375,56,-197.0,0.0
1796,3.5078125,56,-171.0,0.0
1797,3.509765625,56,-100.0,0.0
1798,3.51171875,56,-20.0,0.0
1799,3.513671875,56,26.0,0.0
1800,3.515625,56,29.0,0.0
1801,3.517578125,56,-11.0,0.0
1802,3.51953125,56,-76.0,0.0
1803,3.521484375,56,-60.0,0.0
1804,3.5234375,56,34.0,0.0
1805,3.525390625,56,68.0,0.0
1806,3.52734375,56,32.0,0.0
1807,3.529296875,56,5.0,0.0
1808,3.53125,56,16.0,0.0
1809,3.533203125,56,52.0,0.0
1810,3.53515625,56,104.0,0.0
1811,3.537109375,56,154.0,0.0
1812,3.5390625,56,134.0,0.0
1813,3.541015625,56,148.0,0.0
1814,3.54296875,56,198.0,0.0
1815,3.544921875,56,189.0,0.0
1816,3.546875,56,160.0,0.0
1817,3.548828125,56,180.0,0.0
1818,3.55078125,56,237.0,0.0
1819,3.552734375,56,272.0,0.0
1820,3.5546875,56,246.0,0.0
1821,3.556640625,56,154.0,0.0
1822,3.55859375,56,100.0,0.0
1823,3.560546875,56,154.0,0.0
1824,3.5625,57,213.0,0.0
1825,3.564453125,57,173.0,0.0
1826,3.56640625,57,115.0,0.0
1827,3.568359375,57,104.0,0.0
1828,3.5703125,57,128.0,0.0
1829,3.572265625,57,153.0,0.0
1830,3.57421875,57,166.0,0.0
1831,3.576171875,57,172.0,0.0
1832,3.578125,57,155.0,0.0
1833,3.580078125,57,123.0,0.0
1834,3.58203125,57,149.0,0.0
1835,3.583984375,57,225.0,0.0
1836,3.5859375,57,246.0,0.0
1837,3.587890625,57,203.0,0.0
1838,3.58984375,57,205.0,0.0
1839,3.591796875,57,232.0,0.0
1840,3.59375,57,211.0,0.0
1841,3.595703125,57,167.0,0.0
1842,3.59765625,57,129.0,0.0
1843,3.599609375,57,73.0,0.0
1844,3.6015625,57,9.0,0.0
1845,3.603515625,57,0.0,0.0
1846,3.60546875,57,37.0,0.0
1847,3.607421875,57,90.0,0.0
1848,3.609375,57,139.0,0.0
1849,3.611328125,57,105.0,0.0
1850,3.61328125,57,38.0,0.0
1851,3.615234375,57,42.0,0.0
1852,3.6171875,57,104.0,0.0
1853,3.619140625,57,144.0,0.0
1854,3.62109375,57,85.0,0.0
1855,3.623046875,57,-28.0,0.0
1856,3.625,58,-100.0,0.0
1857,3.626953125,58,-85.0,0.0
1858,3.62890625,58,-35.0,0.0
1859,3.630859375,58,-3.0,0.0
1860,3.6328125,58,17.0,0.0
1861,3.634765625,58,41.0,0.0
1862,3.63671875,58,52.0,0.0
1863,3.638671875,58,37.0,0.0
1864,3.640625,58,25.0,0.0
1865,3.642578125,58,40.0,0.0
1866,3.64453125,58,75.0,0.0
1867,3.646484375,58,108.0,0.0
1868,3.6484375,58,172.0,0.0
1869,3.650390625,58,240.0,0.0
1870,3.65234375,58,186.0,0.0
1871,3.654296875,58,51.0,0.0
1872,3.65625,58,-35.0,0.0
1873,3.658203125,58,-28.0,0.0
1874,3.66015625,58,-8.0,0.0
1875,3.662109375,58,-29.0,0.0
1876,3.6640625,58,-36.0,0.0
1877,3.666015625,58,-10.0,0.0
1878,3.66796875,58,-11.0,0.0
1879,3.669921875,58,-26.0,0.0
1880,3.671875,58,-8.0,0.0
1881,3.673828125,58,44.0,0.0
1882,3.67578125,58,92.0,0.0
1883,3.677734375,58,67.0,0.0
1884,3.6796875,58,9.0,0.0
1885,3.681640625,58,-28.0,0.0
1886,3.68359375,58,-45.0,0.0
1887,3.685546875,58,-44.0,0.0
1888,3.6875,59,-53.0,0.0
1889,3.689453125,59,-75.0,0.0
1890,3.69140625,59,-72.0,0.0
1891,3.693359375,59,-44.0,0.0
1892,3.6953125,59,-26.0,0.0
1893,3.697265625,59,-14.0,0.0
1894,3.69921875,59,25.0,0.0
1895,3.701171875,59,70.0,0.0
1896,3.703125,59,101.0,0.0
1897,3.705078125,59,104.0,0.0
1898,3.70703125,59,83.0,0.0
1899,3.708984375,59,71.0,0.0
1900,3.7109375,59,56.0,0.0
1901,3.712890625,59,7.0,0.0
1902,3.71484375,59,-54.0,0.0
1903,3.716796875,59,-56.0,0.0
1904,3.71875,59,35.0,0.0
1905,3.720703125,59,112.0,0.0
1906,3.72265625,59,84.0,0.0
1907,3.724609375,59,11.0,0.0
1908,3.7265625,59,-19.0,0.0
1909,3.728515625,59,-5.0,0.0
1910,3.73046875,59,21.0,0.0
1911,3.732421875,59,7.0,0.0
1912,3.734375,59,-38.0,0.0
1913,3.736328125,59,-62.0,0.0
1914,3.73828125,59,-58.0,0.0
1915,3.740234375,59,-41.0,0.0
1916,3.7421875,59,-33.0,0.0
1917,3.744140625,59,-23.0,0.0
1918,3.74609375,59,-1.0,0.0
1919,3.748046875,59,20.0,0.0
1920,3.75,60,24.0,0.0
1921,3.751953125,60,21.0,0.0
1922,3.75390625,60,-2.0,0.0
1923,3.755859375,60,-4.0,0.0
1924,3.7578125,60,26.0,0.0
1925,3.759765625,60,51.0,0.0
1926,3.76171875,60,34.0,0.0
1927,3.763671875,60,19.0,0.0
1928,3.765625,60,28.0,0.0
1929,3.767578125,60,19.0,0.0
1930,3.76953125,60,-7.0,0.0
1931,3.771484375,60,-28.0,0.0
1932,3.7734375,60,-8.0,0.0
1933,3.775390625,60,53.0,0.0
1934,3.77734375,60,92.0,0.0
1935,3.779296875,60,44.0,0.0
1936,3.78125,60,-8.0,0.0
1937,3.783203125,60,-8.0,0.0
1938,3.78515625,60,5.0,0.0
1939,3.787109375,60,27.0,0.0
1940,3.7890625,60,32.0,0.0
1941,3.791015625,60,28.0,0.0
1942,3.79296875,60,32.0,0.0
1943,3.794921875,60,37.0,0.0
1944,3.796875,60,40.0,0.0
1945,3.798828125,60,28.0,0.0
1946,3.80078125,60,22.0,0.0
1947,3.802734375,60,18.0,0.0
1948,3.8046875,60,4.0,0.0
1949,3.806640625,60,20.0,0.0
1950,3.80859375,60,39.0,0.0
1951,3.810546875,60,6.0,0.0
1952,3.8125,61,-7.0,0.0
1953,3.814453125,61,21.0,0.0
1954,3.81640625,61,36.0,0.0
1955,3.818359375,61,26.0,0.0
1956,3.8203125,61,34.0,0.0
1957,3.822265625,61,64.0,0.0
1958,3.82421875,61,70.0,0.0
1959,3.826171875,61,27.0,0.0
1960,3.828125,61,-17.0,0.0
1961,3.830078125,61,0.0,0.0
1962,3.83203125,61,38.0,0.0
1963,3.833984375,61,12.0,0.0
1964,3.8359375,61,-50.0,0.0
1965,3.837890625,61,-62.0,0.0
1966,3.83984375,61,-21.0,0.0
1967,3.841796875,61,-2.0,0.0
1968,3.84375,61,-4.0,0.0
1969,3.845703125,61,-11.0,0.0
1970,3.84765625,61,-11.0,0.0
1971,3.849609375,61,-4.0,0.0
1972,3.8515625,61,-10.0,0.0
1973,3.853515625,61,-37.0,0.0
1974,3.85546875,61,-46.0,0.0
1975,3.857421875,61,-40.0,0.0
1976,3.859375,61,-25.0,0.0
1977,3.861328125,61,-27.0,0.0
1978,3.86328125,61,-22.0,0.0
1979,3.865234375,61,-33.0,0.0
1980,3.8671875,61,-24.0,0.0
1981,3.869140625,61,25.0,0.0
1982,3.87109375,61,43.0,0.0
1983,3.873046875,61,38.0,0.0
1984,3.875,62,38.0,0.0
1985,3.876953125,62,40.0,0.0
1986,3.87890625,62,42.0,0.0
1987,3.880859375,62,41.0,0.0
1988,3.8828125,62,27.0,0.0
1989,3.884765625,62,27.0,0.0
1990,3.88671875,62,20.0,0.0
1991,3.888671875,62,3.0,0.0
1992,3.890625,62,5.0,0.0
1993,3.892578125,62,20.0,0.0
1994,3.89453125,62,12.0,0.0
1995,3.896484375,62,-11.0,0.0
1996,3.8984375,62,-18.0,0.0
1997,3.900390625,62,5.0,0.0
1998,3.90234375,62,28.0,0.0
1999,3.904296875,62,35.0,0.0
2000,3.90625,62,28.0,0.0
2001,3.908203125,62,5.0,0.0
2002,3.91015625,62,-17.0,0.0
2003,3.912109375,62,-41.0,0.0
2004,3.9140625,62,-54.0,0.0
2005,3.916015625,62,-14.0,0.0
2006,3.91796875,62,7.0,0.0
2007,3.919921875,62,20.0,0.0
2008,3.921875,62,17.0,0.0
2009,3.923828125,62,20.0,0.0
2010,3.92578125,62,54.0,0.0
2011,3.927734375,62,101.0,0.0
2012,3.9296875,62,97.0,0.0
2013,3.931640625,62,101.0,0.0
2014,3.93359375,62,122.0,0.0
2015,3.935546875,62,115.0,0.0
2016,3.9375,63,125.0,0.0
2017,3.939453125,63,170.0,0.0
2018,3.94140625,63,214.0,0.0
2019,3.943359375,63,269.0,0.0
2020,3.9453125,63,310.0,0.0
2021,3.947265625,63,289.0,0.0
2022,3.94921875,63,265.0,0.0
2023,3.951171875,63,289.0,0.0
2024,3.953125,63,332.0,0.0
2025,3.955078125,63,355.0,0.0
2026,3.95703125,63,385.0,0.0
2027,3.958984375,63,433.0,0.0
2028,3.9609375,63,449.0,0.0
2029,3.962890625,63,436.0,0.0
2030,3.96484375,63,421.0,0.0
2031,3.966796875,63,453.0,0.0
2032,3.96875,63,547.0,0.0
2033,3.970703125,63,576.0,0.0
2034,3.97265625,63,489.0,0.0
2035,3.974609375,63,392.0,0.0
2036,3.9765625,63,394.0,0.0
2037,3.978515625,63,471.0,0.0
2038,3.98046875,63,491.0,0.0
2039,3.982421875,63,444.0,0.0
2040,3.984375,63,394.0,0.0
2041,3.986328125,63,357.0,0.0
2042,3.98828125,63,345.0,0.0
2043,3.990234375,63,317.0,0.0
2044,3.9921875,63,272.0,0.0
2045,3.994140625,63,219.0,0.0
2046,3.99609375,63,162.0,0.0
2047,3.998046875,63,124.0,0.0
2048,4.0,64,125.0,0.0
2049,4.001953125,64,141.0,0.0
2050,4.00390625,64,112.0,0.0
2051,4.005859375,64,48.0,0.0
2052,4.0078125,64,12.0,0.0
2053,4.009765625,64,21.0,0.0
2054,4.01171875,64,18.0,0.0
2055,4.013671875,64,6.0,0.0
2056,4.015625,64,-11.0,0.0
2057,4.017578125,64,-53.0,0.0
2058,4.01953125,64,-74.0,0.0
2059,4.021484375,64,-77.0,0.0
2060,4.0234375,64,-90.0,0.0
2061,4.025390625,64,-94.0,0.0
2062,4.02734375,64,-115.0,0.0
2063,4.029296875,64,-140.0,0.0
2064,4.03125,64,-140.0,0.0
2065,4.033203125,64,-134.0,0.0
2066,4.03515625,64,-121.0,0.0
2067,4.037109375,64,-137.0,0.0
2068,4.0390625,64,-163.0,0.0
2069,4.041015625,64,-174.0,0.0
2070,4.04296875,64,-154.0,0.0
2071,4.044921875,64,-135.0,0.0
2072,4.046875,64,-135.0,0.0
2073,4.048828125,64,-161.0,0.0
2074,4.05078125,64,-203.0,0.0
2075,4.052734375,64,-218.0,0.0
2076,4.0546875,64,-197.0,0.0
2077,4.056640625,64,-182.0,0.0
2078,4.05859375,64,-172.0,0.0
2079,4.060546875,64,-171.0,0.0
2080,4.0625,65,-168.0,0.0
2081,4.064453125,65,-173.0,0.0
2082,4.06640625,65,-184.0,0.0
2083,4.068359375,65,-187.0,0.0
2084,4.0703125,65,-194.0,0.0
2085,4.072265625,65,-200.0,0.0
2086,4.07421875,65,-197.0,0.0
2087,4.076171875,65,-196.0,0.0
2088,4.078125,65,-185.0,0.0
2089,4.080078125,65,-168.0,0.0
2090,4.08203125,65,-126.0,0.0
2091,4.083984375,65,-98.0,0.0
2092,4.0859375,65,-102.0,0.0
2093,4.087890625,65,-125.0,0.0
2094,4.08984375,65,-134.0,0.0
2095,4.091796875,65,-106.0,0.0
2096,4.09375,65,-76.0,0.0
2097,4.095703125,65,-58.0,0.0
2098,4.09765625,65,-58.0,0.0
2099,4.099609375,65,-59.0,0.0
2100,4.1015625,65,-50.0,0.0
2101,4.103515625,65,-45.0,0.0
2102,4.10546875,65,-44.0,0.0
2103,4.107421875,65,-51.0,0.0
2104,4.109375,65,-71.0,0.0
2105,4.111328125,65,-104.0,0.0
2106,4.11328125,65,-139.0,0.0
2107,4.115234375,65,-162.0,0.0
2108,4.1171875,65,-151.0,0.0
2109,4.119140625,65,-138.0,0.0
2110,4.12109375,65,-138.0,0.0
2111,4.123046875,65,-158.0,0.0
2112,4.125,66,-184.0,0.0
2113,4.126953125,66,-188.0,0.0
2114,4.12890625,66,-196.0,0.0
2115,4.130859375,66,-193.0,0.0
2116,4.1328125,66,-166.0,0.0
2117,4.134765625,66,-146.0,0.0
2118,4.13671875,66,-138.0,0.0
2119,4.138671875,66,-120.0,0.0
2120,4.140625,66,-87.0,0.0
2121,4.142578125,66,-44.0,0.0
2122,4.14453125,66,-10.0,0.0
2123,4.146484375,66,8.0,0.0
2124,4.1484375,66,21.0,0.0
2125,4.150390625,66,41.0,0.0
2126,4.15234375,66,66.0,0.0
2127,4.154296875,66,80.0,0.0
2128,4.15625,66,80.0,0.0
2129,4.158203125,66,102.0,0.0
2130,4.16015625,66,152.0,0.0
2131,4.162109375,66,182.0,0.0
2132,4.1640625,66,200.0,0.0
2133,4.166015625,66,219.0,0.0
2134,4.16796875,66,214.0,0.0
2135,4.169921875,66,201.0,0.0
2136,4.171875,66,185.0,0.0
2137,4.173828125,66,202.0,0.0
2138,4.17578125,66,237.0,0.0
2139,4.177734375,66,249.0,0.0
2140,4.1796875,66,245.0,0.0
2141,4.181640625,66,235.0,0.0
2142,4.18359375,66,221.0,0.0
2143,4.185546875,66,224.0,0.0
2144,4.1875,67,234.0,0.0
2145,4.189453125,67,246.0,0.0
2146,4.19140625,67,247.0,0.0
2147,4.193359375,67,236.0,0.0
2148,4.1953125,67,228.0,0.0
2149,4.197265625,67,218.0,0.0
2150,4.19921875,67,196.0,0.0
2151,4.201171875,67,166.0,0.0
2152,4.203125,67,156.0,0.0
2153,4.205078125,67,172.0,0.0
2154,4.20703125,67,186.0,0.0
2155,4.208984375,67,154.0,0.0
2156,4.2109375,67,104.0,0.0
2157,4.212890625,67,64.0,0.0
2158,4.21484375,67,60.0,0.0
2159,4.216796875,67,92.0,0.0
2160,4.21875,67,103.0,0.0
2161,4.220703125,67,68.0,0.0
2162,4.22265625,67,20.0,0.0
2163,4.224609375,67,17.0,0.0
2164,4.2265625,67,55.0,0.0
2165,4.228515625,67,68.0,0.0
2166,4.23046875,67,48.0,0.0
2167,4.232421875,67,33.0,0.0
2168,4.234375,67,36.0,0.0
2169,4.236328125,67,25.0,0.0
2170,4.23828125,67,-1.0,0.0
2171,4.240234375,67,-8.0,0.0
2172,4.2421875,67,23.0,0.0
2173,4.244140625,67,42.0,0.0
2174,4.24609375,67,37.0,0.0
2175,4.248046875,67,64.0,0.0
2176,4.25,68,103.0,0.0
2177,4.251953125,68,109.0,0.0
2178,4.25390625,68,73.0,0.0
2179,4.255859375,68,25.0,0.0
2180,4.2578125,68,-3.0,0.0
2181,4.259765625,68,-29.0,0.0
2182,4.26171875,68,-70.0,0.0
2183,4.263671875,68,-91.0,0.0
2184,4.265625,68,-61.0,0.0
2185,4.267578125,68,13.0,0.0
2186,4.26953125,68,80.0,0.0
2187,4.271484375,68,71.0,0.0
2188,4.2734375,68,23.0,0.0
2189,4.275390625,68,12.0,0.0
2190,4.27734375,68,65.0,0.0
2191,4.279296875,68,91.0,0.0
2192,4.28125,68,49.0,0.0
2193,4.283203125,68,-18.0,0.0
2194,4.28515625,68,-70.0,0.0
2195,4.287109375,68,-91.0,0.0
2196,4.2890625,68,-86.0,0.0
2197,4.291015625,68,-56.0,0.0
2198,4.29296875,68,-33.0,0.0
2199,4.294921875,68,-41.0,0.0
2200,4.296875,68,-66.0,0.0
2201,4.298828125,68,-83.0,0.0
2202,4.30078125,68,-90.0,0.0
2203,4.302734375,68,-106.0,0.0
2204,4.3046875,68,-132.0,0.0
2205,4.306640625,68,-147.0,0.0
2206,4.30859375,68,-131.0,0.0
2207,4.310546875,68,-98.0,0.0
2208,4.3125,69,-55.0,0.0
2209,4.314453125,69,-49.0,0.0
2210,4.31640625,69,-94.0,0.0
2211,4.318359375,69,-125.0,0.0
2212,4.3203125,69,-113.0,0.0
2213,4.322265625,69,-98.0,0.0
2214,4.32421875,69,-110.0,0.0
2215,4.326171875,69,-140.0,0.0
2216,4.328125,69,-151.0,0.0
2217,4.330078125,69,-133.0,0.0
2218,4.33203125,69,-104.0,0.0
2219,4.333984375,69,-78.0,0.0
2220,4.3359375,69,-59.0,0.0
2221,4.337890625,69,-60.0,0.0
2222,4.33984375,69,-92.0,0.0
2223,4.341796875,69,-114.0,0.0
2224,4.34375,69,-104.0,0.0
2225,4.345703125,69,-104.0,0.0
2226,4.34765625,69,-120.0,0.0
2227,4.349609375,69,-129.0,0.0
2228,4.3515625,69,-113.0,0.0
2229,4.353515625,69,-83.0,0.0
2230,4.35546875,69,-38.0,0.0
2231,4.357421875,69,-8.0,0.0
2232,4.359375,69,-33.0,0.0
2233,4.361328125,69,-90.0,0.0
2234,4.36328125,69,-100.0,0.0
2235,4.365234375,69,-70.0,0.0
2236,4.3671875,69,-43.0,0.0
2237,4.369140625,69,-45.0,0.0
2238,4.37109375,69,-77.0,0.0
2239,4.373046875,69,-98.0,0.0
2240,4.375,70,-100.0,0.0
2241,4.376953125,70,-97.0,0.0
2242,4.37890625,70,-94.0,0.0
2243,4.380859375,70,-90.0,0.0
2244,4.3828125,70,-115.0,0.0
2245,4.384765625,70,-149.0,0.0
2246,4.38671875,70,-151.0,0.0
2247,4.388671875,70,-126.0,0.0
2248,4.390625,70,-98.0,0.0
2249,4.392578125,70,-97.0,0.0
2250,4.39453125,70,-104.0,0.0
2251,4.396484375,70,-101.0,0.0
2252,4.3984375,70,-102.0,0.0
2253,4.400390625,70,-90.0,0.0
2254,4.40234375,70,-68.0,0.0
2255,4.404296875,70,-78.0,0.0
2256,4.40625,70,-115.0,0.0
2257,4.408203125,70,-141.0,0.0
2258,4.41015625,70,-132.0,0.0
2259,4.412109375,70,-104.0,0.0
2260,4.4140625,70,-93.0,0.0
2261,4.416015625,70,-86.0,0.0
2262,4.41796875,70,-59.0,0.0
2263,4.419921875,70,-35.0,0.0
2264,4.421875,70,-18.0,0.0
2265,4.423828125,70,-10.0,0.0
2266,4.42578125,70,1.0,0.0
2267,4.427734375,70,18.0,0.0
2268,4.4296875,70,12.0,0.0
2269,4.431640625,70,-18.0,0.0
2270,4.43359375,70,-45.0,0.0
2271,4.435546875,70,-56.0,0.0
2272,4.4375,71,-66.0,0.0
2273,4.439453125,71,-76.0,0.0
2274,4.44140625,71,-55.0,0.0
2275,4.443359375,71,-12.0,0.0
2276,4.4453125,71,9.0,0.0
2277,4.447265625,71,-2.0,0.0
2278,4.44921875,71,-40.0,0.0
2279,4.451171875,71,-72.0,0.0
2280,4.453125,71,-58.0,0.0
2281,4.455078125,71,-26.0,0.0
2282,4.45703125,71,-8.0,0.0
2283,4.458984375,71,1.0,0.0
2284,4.4609375,71,-10.0,0.0
2285,4.462890625,71,-20.0,0.0
2286,4.46484375,71,-2.0,0.0
2287,4.466796875,71,28.0,0.0
2288,4.46875,71,42.0,0.0
2289,4.470703125,71,34.0,0.0
2290,4.47265625,71,3.0,0.0
2291,4.474609375,71,-24.0,0.0
2292,4.4765625,71,-36.0,0.0
2293,4.478515625,71,-50.0,0.0
2294,4.48046875,71,-69.0,0.0
2295,4.482421875,71,-84.0,0.0
2296,4.484375,71,-94.0,0.0
2297,4.486328125,71,-85.0,0.0
2298,4.48828125,71,-73.0,0.0
2299,4.490234375,71,-68.0,0.0
2300,4.4921875,71,-50.0,0.0
2301,4.494140625,71,-5.0,0.0
2302,4.49609375,71,29.0,0.0
2303,4.498046875,71,43.0,0.0
2304,4.5,72,52.0,0.0
2305,4.501953125,72,56.0,0.0
2306,4.50390625,72,56.0,0.0
2307,4.505859375,72,50.0,0.0
2308,4.5078125,72,39.0,0.0
2309,4.509765625,72,11.0,0.0
2310,4.51171875,72,-23.0,0.0
2311,4.513671875,72,-30.0,0.0
2312,4.515625,72,21.0,0.0
2313,4.517578125,72,145.0,0.0
2314,4.51953125,72,212.0,0.0
2315,4.521484375,72,168.0,0.0
2316,4.5234375,72,74.0,0.0
2317,4.525390625,72,12.0,0.0
2318,4.52734375,72,34.0,0.0
2319,4.529296875,72,132.0,0.0
2320,4.53125,72,201.0,0.0
2321,4.533203125,72,136.0,0.0
2322,4.53515625,72,13.0,0.0
2323,4.537109375,72,19.0,0.0
2324,4.5390625,72,157.0,0.0
2325,4.541015625,72,278.0,0.0
2326,4.54296875,72,280.0,0.0
2327,4.544921875,72,201.0,0.0
2328,4.546875,72,104.0,0.0
2329,4.548828125,72,26.0,0.0
2330,4.55078125,72,-21.0,0.0
2331,4.552734375,72,-44.0,0.0
2332,4.5546875,72,-57.0,0.0
2333,4.556640625,72,-66.0,0.0
2334,4.55859375,72,-61.0,0.0
2335,4.560546875,72,-38.0,0.0
2336,4.5625,73,-8.0,0.0
2337,4.564453125,73,10.0,0.0
2338,4.56640625,73,18.0,0.0
2339,4.568359375,73,9.0,0.0
2340,4.5703125,73,-10.0,0.0
2341,4.572265625,73,-36.0,0.0
2342,4.57421875,73,-59.0,0.0
2343,4.576171875,73,-76.0,0.0
2344,4.578125,73,-70.0,0.0
2345,4.580078125,73,-49.0,0.0
2346,4.58203125,73,-58.0,0.0
2347,4.583984375,73,-97.0,0.0
2348,4.5859375,73,-109.0,0.0
2349,4.587890625,73,-93.0,0.0
2350,4.58984375,73,-76.0,0.0
2351,4.591796875,73,-76.0,0.0
2352,4.59375,73,-86.0,0.0
2353,4.595703125,73,-88.0,0.0
2354,4.59765625,73,-81.0,0.0
2355,4.599609375,73,-62.0,0.0
2356,4.6015625,73,-51.0,0.0
2357,4.603515625,73,-45.0,0.0
2358,4.60546875,73,-56.0,0.0
2359,4.607421875,73,-74.0,0.0
2360,4.609375,73,-93.0,0.0
2361,4.611328125,73,-99.0,0.0
2362,4.61328125,73,-74.0,0.0
2363,4.615234375,73,-52.0,0.0
2364,4.6171875,73,-54.0,0.0
2365,4.619140625,73,-59.0,0.0
2366,4.62109375,73,-65.0,0.0
2367,4.623046875,73,-58.0,0.0
2368,4.625,74,-54.0,0.0
2369,4.626953125,74,-70.0,0.0
2370,4.62890625,74,-103.0,0.0
2371,4.630859375,74,-153.0,0.0
2372,4.6328125,74,-187.0,0.0
2373,4.634765625,74,-201.0,0.0
2374,4.63671875,74,-196.0,0.0
2375,4.638671875,74,-181.0,0.0
2376,4.640625,74,-170.0,0.0
2377,4.642578125,74,-169.0,0.0
2378,4.64453125,74,-180.0,0.0
2379,4.646484375,74,-183.0,0.0
2380,4.6484375,74,-170.0,0.0
2381,4.650390625,74,-151.0,0.0
2382,4.65234375,74,-148.0,0.0
2383,4.654296875,74,-152.0,0.0
2384,4.65625,74,-148.0,0.0
2385,4.658203125,74,-124.0,0.0
2386,4.66015625,74,-98.0,0.0
2387,4.662109375,74,-59.0,0.0
2388,4.6640625,74,-1.0,0.0
2389,4.666015625,74,75.0,0.0
2390,4.66796875,74,122.0,0.0
2391,4.669921875,74,121.0,0.0
2392,4.671875,74,108.0,0.0
2393,4.673828125,74,101.0,0.0
2394,4.67578125,74,103.0,0.0
2395,4.677734375,74,113.0,0.0
2396,4.6796875,74,117.0,0.0
2397,4.681640625,74,101.0,0.0
2398,4.68359375,74,60.0,0.0
2399,4.685546875,74,48.0,0.0
2400,4.6875,75,64.0,0.0
2401,4.689453125,75,84.0,0.0
2402,4.69140625,75,75.0,0.0
2403,4.693359375,75,48.0,0.0
2404,4.6953125,75,26.0,0.0
2405,4.697265625,75,29.0,0.0
2406,4.69921875,75,26.0,0.0
2407,4.701171875,75,13.0,0.0
2408,4.703125,75,10.0,0.0
2409,4.705078125,75,24.0,0.0
2410,4.70703125,75,37.0,0.0
2411,4.708984375,75,23.0,0.0
2412,4.7109375,75,-18.0,0.0
2413,4.712890625,75,-42.0,0.0
2414,4.71484375,75,-21.0,0.0
2415,4.716796875,75,37.0,0.0
2416,4.71875,75,93.0,0.0
2417,4.720703125,75,130.0,0.0
2418,4.72265625,75,151.0,0.0
2419,4.724609375,75,165.0,0.0
2420,4.7265625,75,164.0,0.0
2421,4.728515625,75,161.0,0.0
2422,4.73046875,75,160.0,0.0
2423,4.732421875,75,153.0,0.0
2424,4.734375,75,135.0,0.0
2425,4.736328125,75,115.0,0.0
2426,4.73828125,75,96.0,0.0
2427,4.740234375,75,83.0,0.0
2428,4.7421875,75,67.0,0.0
2429,4.744140625,75,53.0,0.0
2430,4.74609375,75,40.0,0.0
2431,4.748046875,75,28.0,0.0
2432,4.75,76,16.0,0.0
2433,4.751953125,76,26.0,0.0
2434,4.75390625,76,59.0,0.0
2435,4.755859375,76,74.0,0.0
2436,4.7578125,76,66.0,0.0
2437,4.759765625,76,74.0,0.0
2438,4.76171875,76,92.0,0.0
2439,4.763671875,76,101.0,0.0
2440,4.765625,76,82.0,0.0
2441,4.767578125,76,39.0,0.0
2442,4.76953125,76,17.0,0.0
2443,4.771484375,76,21.0,0.0
2444,4.7734375,76,24.0,0.0
2445,4.775390625,76,20.0,0.0
2446,4.77734375,76,13.0,0.0
2447,4.779296875,76,36.0,0.0
2448,4.78125,76,55.0,0.0
2449,4.783203125,76,57.0,0.0
2450,4.78515625,76,43.0,0.0
2451,4.787109375,76,26.0,0.0
2452,4.7890625,76,35.0,33553.0
2453,4.791015625,76,35.0,33554.0
2454,4.79296875,76,82.0,0.0
2455,4.794921875,76,133.0,0.0
2456,4.796875,76,196.0,0.0
2457,4.798828125,76,250.0,0.0
2458,4.80078125,76,284.0,0.0
2459,4.802734375,76,314.0,0.0
2460,4.8046875,76,325.0,0.0
2461,4.806640625,76,306.0,0.0
2462,4.80859375,76,277.0,0.0
2463,4.810546875,76,280.0,0.0
2464,4.8125,77,299.0,0.0
2465,4.814453125,77,284.0,0.0
2466,4.81640625,77,245.0,0.0
2467,4.818359375,77,228.0,0.0
2468,4.8203125,77,272.0,0.0
2469,4.822265625,77,314.0,0.0
2470,4.82421875,77,308.0,0.0
2471,4.826171875,77,295.0,0.0
2472,4.828125,77,313.0,0.0
2473,4.830078125,77,346.0,0.0
2474,4.83203125,77,357.0,0.0
2475,4.833984375,77,316.0,0.0
2476,4.8359375,77,275.0,0.0
2477,4.837890625,77,300.0,0.0
2478,4.83984375,77,349.0,0.0
2479,4.841796875,77,361.0,0.0
2480,4.84375,77,326.0,0.0
2481,4.845703125,77,261.0,0.0
2482,4.84765625,77,193.0,0.0
2483,4.849609375,77,155.0,0.0
2484,4.8515625,77,140.0,0.0
2485,4.853515625,77,130.0,0.0
2486,4.85546875,77,120.0,0.0
2487,4.857421875,77,147.0,0.0
2488,4.859375,77,197.0,0.0
2489,4.861328125,77,213.0,0.0
2490,4.86328125,77,203.0,0.0
2491,4.865234375,77,209.0,0.0
2492,4.8671875,77,231.0,0.0
2493,4.869140625,77,241.0,0.0
2494,4.87109375,77,215.0,0.0
2495,4.873046875,77,157.0,0.0
2496,4.875,78,85.0,0.0
2497,4.876953125,78,41.0,0.0
2498,4.87890625,78,44.0,0.0
2499,4.880859375,78,82.0,0.0
2500,4.8828125,78,116.0,0.0
2501,4.884765625,78,129.0,0.0
2502,4.88671875,78,116.0,0.0
2503,4.888671875,78,72.0,0.0
2504,4.890625,78,33.0,0.0
2505,4.892578125,78,25.0,0.0
2506,4.89453125,78,12.0,0.0
2507,4.896484375,78,3.0,0.0
2508,4.8984375,78,28.0,0.0
2509,4.900390625,78,65.0,0.0
2510,4.90234375,78,80.0,0.0
2511,4.904296875,78,68.0,0.0
2512,4.90625,78,52.0,0.0
2513,4.908203125,78,34.0,0.0
2514,4.91015625,78,4.0,0.0
2515,4.912109375,78,-10.0,0.0
2516,4.9140625,78,4.0,0.0
2517,4.916015625,78,37.0,0.0
2518,4.91796875,78,53.0,0.0
2519,4.919921875,78,50.0,0.0
2520,4.921875,78,48.0,0.0
2521,4.923828125,78,52.0,0.0
2522,4.92578125,78,52.0,0.0
2523,4.927734375,78,37.0,0.0
2524,4.9296875,78,32.0,0.0
2525,4.931640625,78,60.0,0.0
2526,4.93359375,78,75.0,0.0
2527,4.935546875,78,53.0,0.0
2528,4.9375,79,40.0,0.0
2529,4.939453125,79,52.0,0.0
2530,4.94140625,79,58.0,0.0
2531,4.943359375,79,55.0,0.0
2532,4.9453125,79,55.0,0.0
2533,4.947265625,79,49.0,0.0
2534,4.94921875,79,20.0,0.0
2535,4.951171875,79,8.0,0.0
2536,4.953125,79,25.0,0.0
2537,4.955078125,79,64.0,0.0
2538,4.95703125,79,104.0,0.0
2539,4.958984375,79,130.0,0.0
2540,4.9609375,79,133.0,0.0
2541,4.962890625,79,114.0,0.0
2542,4.96484375,79,93.0,0.0
2543,4.966796875,79,77.0,0.0
2544,4.96875,79,65.0,0.0
2545,4.970703125,79,50.0,0.0
2546,4.97265625,79,53.0,0.0
2547,4.974609375,79,73.0,0.0
2548,4.9765625,79,74.0,0.0
2549,4.978515625,79,64.0,0.0
2550,4.98046875,79,66.0,0.0
2551,4.982421875,79,60.0,0.0
2552,4.984375,79,37.0,0.0
2553,4.986328125,79,2.0,0.0
2554,4.98828125,79,-38.0,0.0
2555,4.990234375,79,-26.0,0.0
2556,4.9921875,79,-3.0,0.0
2557,4.994140625,79,-2.0,0.0
2558,4.99609375,79,29.0,0.0
2559,4.998046875,79,76.0,0.0
2560,5.0,80,118.0,0.0
2561,5.001953125,80,139.0,0.0
2562,5.00390625,80,108.0,0.0
2563,5.005859375,80,57.0,0.0
2564,5.0078125,80,23.0,0.0
2565,5.009765625,80,10.0,0.0
2566,5.01171875,80,27.0,0.0
2567,5.013671875,80,43.0,0.0
2568,5.015625,80,12.0,0.0
2569,5.017578125,80,-13.0,0.0
2570,5.01953125,80,-23.0,0.0
2571,5.021484375,80,1.0,0.0
2572,5.0234375,80,51.0,0.0
2573,5.025390625,80,86.0,0.0
2574,5.02734375,80,76.0,0.0
2575,5.029296875,80,58.0,0.0
2576,5.03125,80,57.0,0.0
2577,5.033203125,80,59.0,0.0
2578,5.03515625,80,53.0,0.0
2579,5.037109375,80,50.0,0.0
2580,5.0390625,80,64.0,0.0
2581,5.041015625,80,80.0,0.0
2582,5.04296875,80,89.0,0.0
2583,5.044921875,80,99.0,0.0
2584,5.046875,80,114.0,0.0
2585,5.048828125,80,155.0,0.0
2586,5.05078125,80,225.0,0.0
2587,5.052734375,80,264.0,0.0
2588,5.0546875,80,262.0,0.0
2589,5.056640625,80,252.0,0.0
2590,5.05859375,80,229.0,0.0
2591,5.060546875,80,185.0,0.0
2592,5.0625,81,165.0,0.0
2593,5.064453125,81,187.0,0.0
2594,5.06640625,81,232.0,0.0
2595,5.068359375,81,251.0,0.0
2596,5.0703125,81,246.0,0.0
2597,5.072265625,81,259.0,0.0
2598,5.07421875,81,291.0,0.0
2599,5.076171875,81,309.0,0.0
2600,5.078125,81,289.0,0.0
2601,5.080078125,81,244.0,0.0
2602,5.08203125,81,218.0,0.0
2603,5.083984375,81,201.0,0.0
2604,5.0859375,81,187.0,0.0
2605,5.087890625,81,181.0,0.0
2606,5.08984375,81,197.0,0.0
2607,5.091796875,81,244.0,0.0
2608,5.09375,81,275.0,0.0
2609,5.095703125,81,264.0,0.0
2610,5.09765625,81,240.0,0.0
2611,5.099609375,81,228.0,0.0
2612,5.1015625,81,232.0,0.0
2613,5.103515625,81,199.0,0.0
2614,5.10546875,81,130.0,0.0
2615,5.107421875,81,90.0,0.0
2616,5.109375,81,109.0,0.0
2617,5.111328125,81,138.0,0.0
2618,5.11328125,81,137.0,0.0
2619,5.115234375,81,150.0,0.0
2620,5.1171875,81,200.0,0.0
2621,5.119140625,81,240.0,0.0
2622,5.12109375,81,245.0,0.0
2623,5.123046875,81,235.0,0.0
2624,5.125,82,248.0,0.0
2625,5.126953125,82,260.0,0.0
2626,5.12890625,82,231.0,0.0
2627,5.130859375,82,183.0,0.0
2628,5.1328125,82,167.0,0.0
2629,5.134765625,82,184.0,0.0
2630,5.13671875,82,186.0,0.0
2631,5.138671875,82,153.0,0.0
2632,5.140625,82,118.0,0.0
2633,5.142578125,82,115.0,0.0
2634,5.14453125,82,138.0,0.0
2635,5.146484375,82,134.0,0.0
2636,5.1484375,82,96.0,0.0
2637,5.150390625,82,85.0,0.0
2638,5.15234375,82,108.0,0.0
2639,5.154296875,82,154.0,0.0
2640,5.15625,82,193.0,0.0
2641,5.158203125,82,169.0,0.0
2642,5.16015625,82,116.0,0.0
2643,5.162109375,82,106.0,0.0
2644,5.1640625,82,155.0,0.0
2645,5.166015625,82,227.0,0.0
2646,5.16796875,82,246.0,0.0
2647,5.169921875,82,215.0,0.0
2648,5.171875,82,167.0,0.0
2649,5.173828125,82,132.0,0.0
2650,5.17578125,82,119.0,0.0
2651,5.177734375,82,115.0,0.0
2652,5.1796875,82,91.0,0.0
2653,5.181640625,82,53.0,0.0
2654,5.18359375,82,8.0,0.0
2655,5.185546875,82,-28.0,0.0
2656,5.1875,83,-50.0,0.0
2657,5.189453125,83,-36.0,0.0
2658,5.19140625,83,-12.0,0.0
2659,5.193359375,83,-4.0,0.0
2660,5.1953125,83,6.0,0.0
2661,5.197265625,83,29.0,0.0
2662,5.19921875,83,52.0,0.0
2663,5.201171875,83,36.0,0.0
2664,5.203125,83,6.0,0.0
2665,5.205078125,83,22.0,0.0
2666,5.20703125,83,52.0,0.0
2667,5.208984375,83,36.0,0.0
2668,5.2109375,83,23.0,0.0
2669,5.212890625,83,53.0,0.0
2670,5.21484375,83,86.0,0.0
2671,5.216796875,83,93.0,0.0
2672,5.21875,83,81.0,0.0
2673,5.220703125,83,53.0,0.0
2674,5.22265625,83,48.0,0.0
2675,5.224609375,83,92.0,0.0
2676,5.2265625,83,140.0,0.0
2677,5.228515625,83,136.0,0.0
2678,5.23046875,83,119.0,0.0
2679,5.232421875,83,117.0,0.0
2680,5.234375,83,123.0,0.0
2681,5.236328125,83,133.0,0.0
2682,5.23828125,83,134.0,0.0
2683,5.240234375,83,123.0,0.0
2684,5.2421875,83,123.0,0.0
2685,5.244140625,83,132.0,0.0
2686,5.24609375,83,130.0,0.0
2687,5.248046875,83,129.0,0.0
2688,5.25,84,132.0,0.0
2689,5.251953125,84,141.0,0.0
2690,5.25390625,84,148.0,0.0
2691,5.255859375,84,138.0,0.0
2692,5.2578125,84,113.0,0.0
2693,5.259765625,84,84.0,0.0
2694,5.26171875,84,49.0,0.0
2695,5.263671875,84,-11.0,0.0
2696,5.265625,84,-61.0,0.0
2697,5.267578125,84,-45.0,0.0
2698,5.26953125,84,32.0,0.0
2699,5.271484375,84,112.0,0.0
2700,5.2734375,84,165.0,0.0
2701,5.275390625,84,198.0,0.0
2702,5.27734375,84,201.0,0.0
2703,5.279296875,84,197.0,0.0
2704,5.28125,84,232.0,0.0
2705,5.283203125,84,305.0,0.0
2706,5.28515625,84,353.0,0.0
2707,5.287109375,84,343.0,0.0
2708,5.2890625,84,327.0,0.0
2709,5.291015625,84,312.0,0.0
2710,5.29296875,84,297.0,0.0
2711,5.294921875,84,290.0,0.0
2712,5.296875,84,292.0,0.0
2713,5.298828125,84,307.0,0.0
2714,5.30078125,84,316.0,0.0
2715,5.302734375,84,297.0,0.0
2716,5.3046875,84,217.0,0.0
2717,5.306640625,84,123.0,0.0
2718,5.30859375,84,93.0,0.0
2719,5.310546875,84,150.0,0.0
2720,5.3125,85,193.0,0.0
2721,5.314453125,85,194.0,0.0
2722,5.31640625,85,166.0,0.0
2723,5.318359375,85,145.0,0.0
2724,5.3203125,85,137.0,0.0
2725,5.322265625,85,129.0,0.0
2726,5.32421875,85,130.0,0.0
2727,5.326171875,85,121.0,0.0
2728,5.328125,85,91.0,0.0
2729,5.330078125,85,56.0,0.0
2730,5.33203125,85,55.0,0.0
2731,5.333984375,85,75.0,0.0
2732,5.3359375,85,74.0,0.0
2733,5.337890625,85,59.0,0.0
2734,5.33984375,85,53.0,0.0
2735,5.341796875,85,73.0,0.0
2736,5.34375,85,84.0,0.0
2737,5.345703125,85,66.0,0.0
2738,5.34765625,85,45.0,0.0
2739,5.349609375,85,40.0,0.0
2740,5.3515625,85,27.0,0.0
2741,5.353515625,85,5.0,0.0
2742,5.35546875,85,1.0,0.0
2743,5.357421875,85,7.0,0.0
2744,5.359375,85,-8.0,0.0
2745,5.361328125,85,-45.0,0.0
2746,5.36328125,85,-73.0,0.0
2747,5.365234375,85,-94.0,0.0
2748,5.3671875,85,-116.0,0.0
2749,5.369140625,85,-124.0,0.0
2750,5.37109375,85,-110.0,0.0
2751,5.373046875,85,-67.0,0.0
2752,5.375,86,-35.0,0.0
2753,5.376953125,86,-28.0,0.0
2754,5.37890625,86,-21.0,0.0
2755,5.380859375,86,-3.0,0.0
2756,5.3828125,86,-2.0,0.0
2757,5.384765625,86,-21.0,0.0
2758,5.38671875,86,-37.0,0.0
2759,5.388671875,86,-52.0,0.0
2760,5.390625,86,-69.0,0.0
2761,5.392578125,86,-92.0,0.0
2762,5.39453125,86,-118.0,0.0
2763,5.396484375,86,-119.0,0.0
2764,5.3984375,86,-109.0,0.0
2765,5.400390625,86,-107.0,0.0
2766,5.40234375,86,-110.0,0.0
2767,5.404296875,86,-123.0,0.0
2768,5.40625,86,-145.0,0.0
2769,5.408203125,86,-161.0,0.0
2770,5.41015625,86,-168.0,0.0
2771,5.412109375,86,-168.0,0.0
2772,5.4140625,86,-166.0,0.0
2773,5.416015625,86,-166.0,0.0
2774,5.41796875,86,-164.0,0.0
2775,5.419921875,86,-141.0,0.0
2776,5.421875,86,-107.0,0.0
2777,5.423828125,86,-82.0,0.0
2778,5.42578125,86,-56.0,0.0
2779,5.427734375,86,-24.0,0.0
2780,5.4296875,86,12.0,0.0
2781,5.431640625,86,2.0,0.0
2782,5.43359375,86,-21.0,0.0
2783,5.435546875,86,-19.0,0.0
2784,5.4375,87,-4.0,0.0
2785,5.439453125,87,4.0,0.0
2786,5.44140625,87,13.0,0.0
2787,5.443359375,87,36.0,0.0
2788,5.4453125,87,42.0,0.0
2789,5.447265625,87,36.0,0.0
2790,5.44921875,87,36.0,0.0
2791,5.451171875,87,41.0,0.0
2792,5.453125,87,40.0,0.0
2793,5.455078125,87,36.0,0.0
2794,5.45703125,87,45.0,0.0
2795,5.458984375,87,52.0,0.0
2796,5.4609375,87,44.0,0.0
2797,5.462890625,87,44.0,0.0
2798,5.46484375,87,44.0,0.0
2799,5.466796875,87,42.0,0.0
2800,5.46875,87,27.0,0.0
2801,5.470703125,87,19.0,0.0
2802,5.47265625,87,25.0,0.0
2803,5.474609375,87,32.0,0.0
2804,5.4765625,87,27.0,0.0
2805,5.478515625,87,16.0,0.0
2806,5.48046875,87,-6.0,0.0
2807,5.482421875,87,-18.0,0.0
2808,5.484375,87,-4.0,0.0
2809,5.486328125,87,18.0,0.0
2810,5.48828125,87,36.0,0.0
2811,5.490234375,87,32.0,0.0
2812,5.4921875,87,6.0,0.0
2813,5.494140625,87,-1.0,0.0
2814,5.49609375,87,13.0,0.0
2815,5.498046875,87,24.0,0.0
2816,5.5,88,12.0,0.0
2817,5.501953125,88,-9.0,0.0
2818,5.50390625,88,-35.0,0.0
2819,5.505859375,88,-51.0,0.0
2820,5.5078125,88,-45.0,0.0
2821,5.509765625,88,-36.0,0.0
2822,5.51171875,88,-25.0,0.0
2823,5.513671875,88,-13.0,0.0
2824,5.515625,88,-5.0,0.0
2825,5.517578125,88,-8.0,0.0
2826,5.51953125,88,-5.0,0.0
2827,5.521484375,88,0.0,0.0
2828,5.5234375,88,9.0,0.0
2829,5.525390625,88,13.0,0.0
2830,5.52734375,88,-2.0,0.0
2831,5.529296875,88,-20.0,0.0
2832,5.53125,88,-13.0,0.0
2833,5.533203125,88,7.0,0.0
2834,5.53515625,88,7.0,0.0
2835,5.537109375,88,-6.0,0.0
2836,5.5390625,88,-10.0,0.0
2837,5.541015625,88,8.0,0.0
2838,5.54296875,88,23.0,0.0
2839,5.544921875,88,22.0,0.0
2840,5.546875,88,32.0,0.0
2841,5.548828125,88,60.0,0.0
2842,5.55078125,88,96.0,0.0
2843,5.552734375,88,113.0,0.0
2844,5.5546875,88,118.0,0.0
2845,5.556640625,88,116.0,0.0
2846,5.55859375,88,102.0,0.0
2847,5.560546875,88,84.0,0.0
2848,5.5625,89,66.0,0.0
2849,5.564453125,89,59.0,0.0
2850,5.56640625,89,48.0,0.0
2851,5.568359375,89,26.0,0.0
2852,5.5703125,89,28.0,0.0
2853,5.572265625,89,52.0,0.0
2854,5.57421875,89,69.0,0.0
2855,5.576171875,89,70.0,0.0
2856,5.578125,89,80.0,0.0
2857,5.580078125,89,89.0,0.0
2858,5.58203125,89,89.0,0.0
2859,5.583984375,89,85.0,0.0
2860,5.5859375,89,57.0,0.0
2861,5.587890625,89,28.0,0.0
2862,5.58984375,89,34.0,0.0
2863,5.591796875,89,65.0,0.0
2864,5.59375,89,86.0,0.0
2865,5.595703125,89,66.0,0.0
2866,5.59765625,89,28.0,0.0
2867,5.599609375,89,4.0,0.0
2868,5.6015625,89,-12.0,0.0
2869,5.603515625,89,-1.0,33552.0
2870,5.60546875,89,8.0,0.0
2871,5.607421875,89,1.0,0.0
2872,5.609375,89,-10.0,0.0
2873,5.611328125,89,-19.0,0.0
2874,5.61328125,89,-6.0,0.0
2875,5.615234375,89,44.0,0.0
2876,5.6171875,89,83.0,0.0
2877,5.619140625,89,74.0,0.0
2878,5.62109375,89,67.0,0.0
2879,5.623046875,89,72.0,0.0
2880,5.625,90,65.0,0.0
2881,5.626953125,90,35.0,0.0
2882,5.62890625,90,12.0,0.0
2883,5.630859375,90,24.0,0.0
2884,5.6328125,90,28.0,0.0
2885,5.634765625,90,17.0,0.0
2886,5.63671875,90,42.0,0.0
2887,5.638671875,90,112.0,0.0
2888,5.640625,90,149.0,0.0
2889,5.642578125,90,121.0,0.0
2890,5.64453125,90,83.0,0.0
2891,5.646484375,90,90.0,0.0
2892,5.6484375,90,135.0,0.0
2893,5.650390625,90,152.0,0.0
2894,5.65234375,90,119.0,0.0
2895,5.654296875,90,53.0,0.0
2896,5.65625,90,-13.0,0.0
2897,5.658203125,90,-43.0,0.0
2898,5.66015625,90,-10.0,0.0
2899,5.662109375,90,50.0,0.0
2900,5.6640625,90,77.0,0.0
2901,5.666015625,90,58.0,0.0
2902,5.66796875,90,49.0,0.0
2903,5.669921875,90,68.0,0.0
2904,5.671875,90,101.0,0.0
2905,5.673828125,90,144.0,0.0
2906,5.67578125,90,152.0,0.0
2907,5.677734375,90,124.0,0.0
2908,5.6796875,90,81.0,0.0
2909,5.681640625,90,45.0,0.0
2910,5.68359375,90,39.0,0.0
2911,5.685546875,90,49.0,0.0
2912,5.6875,91,44.0,0.0
2913,5.689453125,91,45.0,0.0
2914,5.69140625,91,61.0,0.0
2915,5.693359375,91,80.0,0.0
2916,5.6953125,91,107.0,0.0
2917,5.697265625,91,118.0,0.0
2918,5.69921875,91,86.0,0.0
2919,5.701171875,91,68.0,0.0
2920,5.703125,91,89.0,0.0
2921,5.705078125,91,102.0,0.0
2922,5.70703125,91,73.0,0.0
2923,5.708984375,91,39.0,0.0
2924,5.7109375,91,10.0,0.0
2925,5.712890625,91,-4.0,0.0
2926,5.71484375,91,-12.0,0.0
2927,5.716796875,91,-22.0,0.0
2928,5.71875,91,-5.0,0.0
2929,5.720703125,91,8.0,0.0
2930,5.72265625,91,3.0,0.0
2931,5.724609375,91,-17.0,0.0
2932,5.7265625,91,-56.0,0.0
2933,5.728515625,91,-83.0,0.0
2934,5.73046875,91,-42.0,0.0
2935,5.732421875,91,18.0,0.0
2936,5.734375,91,35.0,0.0
2937,5.736328125,91,-6.0,0.0
2938,5.73828125,91,-54.0,0.0
2939,5.740234375,91,-68.0,0.0
2940,5.7421875,91,-69.0,0.0
2941,5.744140625,91,-74.0,0.0
2942,5.74609375,91,-83.0,0.0
2943,5.748046875,91,-87.0,0.0
2944,5.75,92,-88.0,0.0
2945,5.751953125,92,-83.0,0.0
2946,5.75390625,92,-76.0,0.0
2947,5.755859375,92,-56.0,0.0
2948,5.7578125,92,-34.0,0.0
2949,5.759765625,92,-34.0,0.0
2950,5.76171875,92,-35.0,0.0
2951,5.763671875,92,-35.0,0.0
2952,5.765625,92,-44.0,0.0
2953,5.767578125,92,-54.0,0.0
2954,5.76953125,92,-61.0,0.0
2955,5.771484375,92,-57.0,0.0
2956,5.7734375,92,-29.0,0.0
2957,5.775390625,92,-4.0,0.0
2958,5.77734375,92,5.0,0.0
2959,5.779296875,92,5.0,0.0
2960,5.78125,92,-1.0,0.0
2961,5.783203125,92,-2.0,0.0
2962,5.78515625,92,5.0,0.0
2963,5.787109375,92,12.0,0.0
2964,5.7890625,92,7.0,0.0
2965,5.791015625,92,-3.0,0.0
2966,5.79296875,92,-1.0,0.0
2967,5.794921875,92,-3.0,0.0
2968,5.796875,92,-29.0,0.0
2969,5.798828125,92,-61.0,0.0
2970,5.80078125,92,-74.0,0.0
2971,5.802734375,92,-76.0,0.0
2972,5.8046875,92,-90.0,0.0
2973,5.806640625,92,-99.0,0.0
2974,5.80859375,92,-86.0,0.0
2975,5.810546875,92,-54.0,0.0
2976,5.8125,93,-22.0,0.0
2977,5.814453125,93,-7.0,0.0
2978,5.81640625,93,-5.0,0.0
2979,5.818359375,93,5.0,0.0
2980,5.8203125,93,10.0,0.0
2981,5.822265625,93,-10.0,0.0
2982,5.82421875,93,-51.0,0.0
2983,5.826171875,93,-87.0,0.0
2984,5.828125,93,-87.0,0.0
2985,5.830078125,93,-43.0,0.0
2986,5.83203125,93,4.0,0.0
2987,5.833984375,93,18.0,0.0
2988,5.8359375,93,8.0,0.0
2989,5.837890625,93,-1.0,0.0
2990,5.83984375,93,-2.0,0.0
2991,5.841796875,93,4.0,0.0
2992,5.84375,93,6.0,0.0
2993,5.845703125,93,1.0,0.0
2994,5.84765625,93,-10.0,0.0
2995,5.849609375,93,-43.0,0.0
2996,5.8515625,93,-84.0,0.0
2997,5.853515625,93,-101.0,0.0
2998,5.85546875,93,-70.0,0.0
2999,5.857421875,93,-24.0,0.0
3000,5.859375,93,-1.0,0.0
3001,5.861328125,93,3.0,0.0
3002,5.86328125,93,-8.0,0.0
3003,5.865234375,93,-19.0,0.0
3004,5.8671875,93,-18.0,0.0
3005,5.869140625,93,-3.0,0.0
3006,5.87109375,93,-2.0,0.0
3007,5.873046875,93,-35.0,0.0
3008,5.875,94,-60.0,0.0
3009,5.876953125,94,-60.0,0.0
3010,5.87890625,94,-53.0,0.0
3011,5.880859375,94,-57.0,0.0
3012,5.8828125,94,-72.0,0.0
3013,5.884765625,94,-90.0,0.0
3014,5.88671875,94,-91.0,0.0
3015,5.888671875,94,-70.0,0.0
3016,5.890625,94,-57.0,0.0
3017,5.892578125,94,-52.0,0.0
3018,5.89453125,94,-42.0,0.0
3019,5.896484375,94,-40.0,0.0
3020,5.8984375,94,-40.0,0.0
3021,5.900390625,94,-40.0,0.0
3022,5.90234375,94,-39.0,0.0
3023,5.904296875,94,-42.0,0.0
3024,5.90625,94,-67.0,0.0
3025,5.908203125,94,-113.0,0.0
3026,5.91015625,94,-156.0,0.0
3027,5.912109375,94,-180.0,0.0
3028,5.9140625,94,-193.0,0.0
3029,5.916015625,94,-189.0,0.0
3030,5.91796875,94,-185.0,0.0
3031,5.919921875,94,-190.0,0.0
3032,5.921875,94,-198.0,0.0
3033,5.923828125,94,-211.0,0.0
3034,5.92578125,94,-195.0,0.0
3035,5.927734375,94,-161.0,0.0
3036,5.9296875,94,-137.0,0.0
3037,5.931640625,94,-116.0,0.0
3038,5.93359375,94,-91.0,0.0
3039,5.935546875,94,-85.0,0.0
3040,5.9375,95,-84.0,0.0
3041,5.939453125,95,-59.0,0.0
3042,5.94140625,95,-17.0,0.0
3043,5.943359375,95,23.0,0.0
3044,5.9453125,95,25.0,0.0
3045,5.947265625,95,9.0,0.0
3046,5.94921875,95,8.0,0.0
3047,5.951171875,95,11.0,0.0
3048,5.953125,95,17.0,0.0
3049,5.955078125,95,34.0,0.0
3050,5.95703125,95,57.0,0.0
3051,5.958984375,95,73.0,0.0
3052,5.9609375,95,74.0,0.0
3053,5.962890625,95,71.0,0.0
3054,5.96484375,95,87.0,0.0
3055,5.966796875,95,131.0,0.0
3056,5.96875,95,165.0,0.0
3057,5.970703125,95,157.0,0.0
3058,5.97265625,95,128.0,0.0
3059,5.974609375,95,103.0,0.0
3060,5.9765625,95,92.0,0.0
3061,5.978515625,95,87.0,0.0
3062,5.98046875,95,74.0,0.0
3063,5.982421875,95,49.0,0.0
3064,5.984375,95,49.0,0.0
3065,5.986328125,95,84.0,0.0
3066,5.98828125,95,119.0,0.0
3067,5.990234375,95,124.0,0.0
3068,5.9921875,95,121.0,0.0
3069,5.994140625,95,128.0,0.0
3070,5.99609375,95,134.0,0.0
3071,5.998046875,95,138.0,0.0
3072,6.0,96,119.0,0.0
3073,6.001953125,96,84.0,0.0
3074,6.00390625,96,81.0,0.0
3075,6.005859375,96,121.0,0.0
3076,6.0078125,96,197.0,0.0
3077,6.009765625,96,245.0,0.0
3078,6.01171875,96,241.0,0.0
3079,6.013671875,96,218.0,0.0
3080,6.015625,96,212.0,0.0
3081,6.017578125,96,234.0,0.0
3082,6.01953125,96,247.0,0.0
3083,6.021484375,96,218.0,0.0
3084,6.0234375,96,145.0,0.0
3085,6.025390625,96,64.0,0.0
3086,6.02734375,96,36.0,0.0
3087,6.029296875,96,43.0,0.0
3088,6.03125,96,36.0,0.0
3089,6.033203125,96,27.0,0.0
3090,6.03515625,96,42.0,0.0
3091,6.037109375,96,48.0,0.0
3092,6.0390625,96,27.0,0.0
3093,6.041015625,96,10.0,0.0
3094,6.04296875,96,3.0,0.0
3095,6.044921875,96,11.0,0.0
3096,6.046875,96,7.0,0.0
3097,6.048828125,96,-20.0,0.0
3098,6.05078125,96,-37.0,0.0
3099,6.052734375,96,-38.0,0.0
3100,6.0546875,96,-34.0,0.0
3101,6.056640625,96,-24.0,0.0
3102,6.05859375,96,-12.0,0.0
3103,6.060546875,96,10.0,0.0
3104,6.0625,97,56.0,0.0
3105,6.064453125,97,88.0,0.0
3106,6.06640625,97,108.0,0.0
3107,6.068359375,97,120.0,0.0
3108,6.0703125,97,103.0,0.0
3109,6.072265625,97,88.0,0.0
3110,6.07421875,97,83.0,0.0
3111,6.076171875,97,91.0,0.0
3112,6.078125,97,130.0,0.0
3113,6.080078125,97,166.0,0.0
3114,6.08203125,97,189.0,0.0
3115,6.083984375,97,218.0,0.0
3116,6.0859375,97,258.0,0.0
3117,6.087890625,97,285.0,0.0
3118,6.08984375,97,295.0,0.0
3119,6.091796875,97,305.0,0.0
3120,6.09375,97,310.0,0.0
3121,6.095703125,97,300.0,0.0
3122,6.09765625,97,283.0,0.0
3123,6.099609375,97,263.0,0.0
3124,6.1015625,97,259.0,0.0
3125,6.103515625,97,256.0,0.0
3126,6.10546875,97,244.0,0.0
3127,6.107421875,97,225.0,0.0
3128,6.109375,97,181.0,0.0
3129,6.111328125,97,146.0,0.0
3130,6.11328125,97,172.0,0.0
3131,6.115234375,97,237.0,0.0
3132,6.1171875,97,266.0,0.0
3133,6.119140625,97,248.0,0.0
3134,6.12109375,97,216.0,0.0
3135,6.123046875,97,199.0,0.0
3136,6.125,98,231.0,0.0
3137,6.126953125,98,276.0,0.0
3138,6.12890625,98,263.0,0.0
3139,6.130859375,98,216.0,0.0
3140,6.1328125,98,179.0,0.0
3141,6.134765625,98,164.0,0.0
3142,6.13671875,98,150.0,0.0
3143,6.138671875,98,150.0,0.0
3144,6.140625,98,173.0,0.0
3145,6.142578125,98,180.0,0.0
3146,6.14453125,98,165.0,0.0
3147,6.146484375,98,172.0,0.0
3148,6.1484375,98,180.0,0.0
3149,6.150390625,98,183.0,0.0
3150,6.15234375,98,195.0,0.0
3151,6.154296875,98,192.0,0.0
3152,6.15625,98,165.0,0.0
3153,6.158203125,98,154.0,0.0
3154,6.16015625,98,166.0,0.0
3155,6.162109375,98,163.0,0.0
3156,6.1640625,98,150.0,0.0
3157,6.166015625,98,135.0,0.0
3158,6.16796875,98,113.0,0.0
3159,6.169921875,98,91.0,0.0
3160,6.171875,98,100.0,0.0
3161,6.173828125,98,114.0,0.0
3162,6.17578125,98,103.0,0.0
3163,6.177734375,98,100.0,0.0
3164,6.1796875,98,88.0,0.0
3165,6.181640625,98,70.0,0.0
3166,6.18359375,98,66.0,0.0
3167,6.185546875,98,90.0,0.0
3168,6.1875,99,113.0,0.0
3169,6.189453125,99,108.0,0.0
3170,6.19140625,99,109.0,0.0
3171,6.193359375,99,112.0,0.0
3172,6.1953125,99,91.0,0.0
3173,6.197265625,99,86.0,0.0
3174,6.19921875,99,97.0,0.0
3175,6.201171875,99,98.0,0.0
3176,6.203125,99,91.0,0.0
3177,6.205078125,99,76.0,0.0
3178,6.20703125,99,68.0,0.0
3179,6.208984375,99,80.0,0.0
3180,6.2109375,99,90.0,0.0
3181,6.212890625,99,87.0,0.0
3182,6.21484375,99,73.0,0.0
3183,6.216796875,99,54.0,0.0
3184,6.21875,99,37.0,0.0
3185,6.220703125,99,44.0,0.0
3186,6.22265625,99,52.0,0.0
3187,6.224609375,99,48.0,0.0
3188,6.2265625,99,33.0,0.0
3189,6.228515625,99,24.0,0.0
3190,6.23046875,99,52.0,0.0
3191,6.232421875,99,43.0,0.0
3192,6.234375,99,19.0,0.0
3193,6.236328125,99,34.0,0.0
3194,6.23828125,99,33.0,0.0
3195,6.240234375,99,4.0,0.0
3196,6.2421875,99,-27.0,0.0
3197,6.244140625,99,-44.0,0.0
3198,6.24609375,99,-51.0,0.0
3199,6.248046875,99,-51.0,0.0
3200,6.25,100,-75.0,0.0
3201,6.251953125,100,-86.0,0.0
3202,6.25390625,100,-27.0,0.0
3203,6.255859375,100,66.0,0.0
3204,6.2578125,100,108.0,0.0
3205,6.259765625,100,88.0,0.0
3206,6.26171875,100,58.0,0.0
3207,6.263671875,100,89.0,0.0
3208,6.265625,100,149.0,0.0
3209,6.267578125,100,182.0,0.0
3210,6.26953125,100,178.0,0.0
3211,6.271484375,100,180.0,0.0
3212,6.2734375,100,201.0,0.0
3213,6.275390625,100,152.0,0.0
3214,6.27734375,100,65.0,0.0
3215,6.279296875,100,92.0,0.0
3216,6.28125,100,183.0,0.0
3217,6.283203125,100,236.0,0.0
3218,6.28515625,100,274.0,0.0
3219,6.287109375,100,304.0,0.0
3220,6.2890625,100,307.0,0.0
3221,6.291015625,100,336.0,0.0
3222,6.29296875,100,390.0,0.0
3223,6.294921875,100,428.0,0.0
3224,6.296875,100,429.0,0.0
3225,6.298828125,100,401.0,0.0
3226,6.30078125,100,374.0,0.0
3227,6.302734375,100,357.0,0.0
3228,6.3046875,100,339.0,0.0
3229,6.306640625,100,355.0,0.0
3230,6.30859375,100,420.0,0.0
3231,6.310546875,100,444.0,0.0
3232,6.3125,101,412.0,0.0
3233,6.314453125,101,379.0,0.0
3234,6.31640625,101,378.0,0.0
3235,6.318359375,101,361.0,0.0
3236,6.3203125,101,292.0,0.0
3237,6.322265625,101,208.0,0.0
3238,6.32421875,101,172.0,0.0
3239,6.326171875,101,193.0,0.0
3240,6.328125,101,225.0,0.0
3241,6.330078125,101,215.0,0.0
3242,6.33203125,101,140.0,0.0
3243,6.333984375,101,54.0,0.0
3244,6.3359375,101,69.0,0.0
3245,6.337890625,101,139.0,0.0
3246,6.33984375,101,146.0,0.0
3247,6.341796875,101,119.0,0.0
3248,6.34375,101,103.0,0.0
3249,6.345703125,101,10.0,0.0
3250,6.34765625,101,-62.0,0.0
3251,6.349609375,101,6.0,0.0
3252,6.3515625,101,96.0,0.0
3253,6.353515625,101,35.0,0.0
3254,6.35546875,101,-103.0,0.0
3255,6.357421875,101,-195.0,0.0
3256,6.359375,101,-157.0,0.0
3257,6.361328125,101,-52.0,0.0
3258,6.36328125,101,-28.0,0.0
3259,6.365234375,101,-116.0,0.0
3260,6.3671875,101,-199.0,0.0
3261,6.369140625,101,-203.0,0.0
3262,6.37109375,101,-194.0,0.0
3263,6.373046875,101,-219.0,0.0
3264,6.375,102,-259.0,0.0
3265,6.376953125,102,-284.0,0.0
3266,6.37890625,102,-314.0,0.0
3267,6.380859375,102,-344.0,0.0
3268,6.3828125,102,-308.0,0.0
3269,6.384765625,102,-254.0,0.0
3270,6.38671875,102,-242.0,0.0
3271,6.388671875,102,-251.0,0.0
3272,6.390625,102,-252.0,0.0
3273,6.392578125,102,-219.0,0.0
3274,6.39453125,102,-177.0,0.0
3275,6.396484375,102,-151.0,0.0
3276,6.3984375,102,-183.0,0.0
3277,6.400390625,102,-233.0,0.0
3278,6.40234375,102,-236.0,0.0
3279,6.404296875,102,-243.0,0.0
3280,6.40625,102,-270.0,0.0
3281,6.408203125,102,-312.0,0.0
3282,6.41015625,102,-341.0,0.0
3283,6.412109375,102,-326.0,0.0
3284,6.4140625,102,-275.0,0.0
3285,6.416015625,102,-222.0,0.0
3286,6.41796875,102,-200.0,0.0
3287,6.419921875,102,-210.0,0.0
3288,6.421875,102,-210.0,0.0
3289,6.423828125,102,-200.0,0.0
3290,6.42578125,102,-188.0,0.0
3291,6.427734375,102,-167.0,0.0
3292,6.4296875,102,-156.0,0.0
3293,6.431640625,102,-168.0,0.0
3294,6.43359375,102,-202.0,0.0
3295,6.435546875,102,-212.0,0.0
3296,6.4375,103,-165.0,0.0
3297,6.439453125,103,-104.0,0.0
3298,6.44140625,103,-83.0,0.0
3299,6.443359375,103,-106.0,0.0
3300,6.4453125,103,-126.0,0.0
3301,6.447265625,103,-120.0,0.0
3302,6.44921875,103,-104.0,0.0
3303,6.451171875,103,-94.0,0.0
3304,6.453125,103,-93.0,0.0
3305,6.455078125,103,-88.0,0.0
3306,6.45703125,103,-57.0,0.0
3307,6.458984375,103,-38.0,0.0
3308,6.4609375,103,-41.0,0.0
3309,6.462890625,103,-46.0,0.0
3310,6.46484375,103,-52.0,0.0
3311,6.466796875,103,-67.0,0.0
3312,6.46875,103,-73.0,0.0
3313,6.470703125,103,-50.0,0.0
3314,6.47265625,103,-62.0,0.0
3315,6.474609375,103,-117.0,0.0
3316,6.4765625,103,-138.0,0.0
3317,6.478515625,103,-113.0,0.0
3318,6.48046875,103,-77.0,0.0
3319,6.482421875,103,-68.0,0.0
3320,6.484375,103,-76.0,0.0
3321,6.486328125,103,-83.0,0.0
3322,6.48828125,103,-76.0,0.0
3323,6.490234375,103,-53.0,0.0
3324,6.4921875,103,-43.0,0.0
3325,6.494140625,103,-46.0,0.0
3326,6.49609375,103,-35.0,0.0
3327,6.498046875,103,-17.0,0.0
3328,6.5,104,-3.0,0.0
3329,6.501953125,104,9.0,0.0
3330,6.50390625,104,23.0,0.0
3331,6.505859375,104,43.0,0.0
3332,6.5078125,104,59.0,0.0
3333,6.509765625,104,67.0,0.0
3334,6.51171875,104,74.0,0.0
3335,6.513671875,104,90.0,0.0
3336,6.515625,104,60.0,0.0
3337,6.517578125,104,-9.0,0.0
3338,6.51953125,104,-18.0,0.0
3339,6.521484375,104,7.0,0.0
3340,6.5234375,104,27.0,0.0
3341,6.525390625,104,25.0,0.0
3342,6.52734375,104,-17.0,0.0
3343,6.529296875,104,-39.0,0.0
3344,6.53125,104,-28.0,0.0
3345,6.533203125,104,-19.0,0.0
3346,6.53515625,104,-6.0,0.0
3347,6.537109375,104,-4.0,0.0
3348,6.5390625,104,-9.0,0.0
3349,6.541015625,104,1.0,0.0
3350,6.54296875,104,7.0,0.0
3351,6.544921875,104,-2.0,0.0
3352,6.546875,104,3.0,0.0
3353,6.548828125,104,38.0,0.0
3354,6.55078125,104,82.0,0.0
3355,6.552734375,104,104.0,0.0
3356,6.5546875,104,101.0,0.0
3357,6.556640625,104,97.0,0.0
3358,6.55859375,104,122.0,0.0
3359,6.560546875,104,149.0,0.0
3360,6.5625,105,138.0,0.0
3361,6.564453125,105,119.0,0.0
3362,6.56640625,105,102.0,0.0
3363,6.568359375,105,107.0,0.0
3364,6.5703125,105,123.0,0.0
3365,6.572265625,105,124.0,0.0
3366,6.57421875,105,83.0,0.0
3367,6.576171875,105,42.0,0.0
3368,6.578125,105,35.0,0.0
3369,6.580078125,105,55.0,0.0
3370,6.58203125,105,106.0,0.0
3371,6.583984375,105,136.0,0.0
3372,6.5859375,105,104.0,0.0
3373,6.587890625,105,53.0,0.0
3374,6.58984375,105,36.0,0.0
3375,6.591796875,105,51.0,0.0
3376,6.59375,105,71.0,0.0
3377,6.595703125,105,88.0,0.0
3378,6.59765625,105,100.0,0.0
3379,6.599609375,105,97.0,0.0
3380,6.6015625,105,81.0,0.0
3381,6.603515625,105,60.0,0.0
3382,6.60546875,105,59.0,0.0
3383,6.607421875,105,75.0,0.0
3384,6.609375,105,72.0,0.0
3385,6.611328125,105,41.0,0.0
3386,6.61328125,105,24.0,0.0
3387,6.615234375,105,28.0,0.0
3388,6.6171875,105,57.0,0.0
3389,6.619140625,105,74.0,0.0
3390,6.62109375,105,75.0,0.0
3391,6.623046875,105,64.0,0.0
3392,6.625,106,55.0,0.0
3393,6.626953125,106,50.0,0.0
3394,6.62890625,106,38.0,0.0
3395,6.630859375,106,0.0,0.0
3396,6.6328125,106,-40.0,0.0
3397,6.634765625,106,-68.0,0.0
3398,6.63671875,106,-69.0,0.0
3399,6.638671875,106,-61.0,0.0
3400,6.640625,106,-58.0,0.0
3401,6.642578125,106,-67.0,0.0
3402,6.64453125,106,-58.0,0.0
3403,6.646484375,106,-40.0,0.0
3404,6.6484375,106,-12.0,0.0
3405,6.650390625,106,16.0,0.0
3406,6.65234375,106,18.0,0.0
3407,6.654296875,106,6.0,0.0
3408,6.65625,106,-26.0,0.0
3409,6.658203125,106,-65.0,0.0
3410,6.66015625,106,-72.0,0.0
3411,6.662109375,106,-49.0,0.0
3412,6.6640625,106,-2.0,0.0
3413,6.666015625,106,38.0,0.0
3414,6.66796875,106,18.0,0.0
3415,6.669921875,106,-44.0,0.0
3416,6.671875,106,-68.0,0.0
3417,6.673828125,106,-34.0,0.0
3418,6.67578125,106,-5.0,0.0
3419,6.677734375,106,-26.0,0.0
3420,6.6796875,106,-91.0,0.0
3421,6.681640625,106,-180.0,0.0
3422,6.68359375,106,-235.0,0.0
3423,6.685546875,106,-234.0,0.0
3424,6.6875,107,-214.0,0.0
3425,6.689453125,107,-220.0,0.0
3426,6.69140625,107,-254.0,0.0
3427,6.693359375,107,-269.0,0.0
3428,6.6953125,107,-253.0,0.0
3429,6.697265625,107,-234.0,0.0
3430,6.69921875,107,-237.0,0.0
3431,6.701171875,107,-261.0,0.0
3432,6.703125,107,-268.0,0.0
3433,6.705078125,107,-232.0,0.0
3434,6.70703125,107,-188.0,0.0
3435,6.708984375,107,-151.0,0.0
3436,6.7109375,107,-129.0,0.0
3437,6.712890625,107,-130.0,0.0
3438,6.71484375,107,-133.0,0.0
3439,6.716796875,107,-101.0,0.0
3440,6.71875,107,-42.0,0.0
3441,6.720703125,107,5.0,0.0
3442,6.72265625,107,33.0,0.0
3443,6.724609375,107,41.0,0.0
3444,6.7265625,107,51.0,0.0
3445,6.728515625,107,83.0,0.0
3446,6.73046875,107,119.0,0.0
3447,6.732421875,107,128.0,0.0
3448,6.734375,107,120.0,0.0
3449,6.736328125,107,107.0,0.0
3450,6.73828125,107,115.0,0.0
3451,6.740234375,107,125.0,0.0
3452,6.7421875,107,117.0,0.0
3453,6.744140625,107,122.0,0.0
3454,6.74609375,107,172.0,0.0
3455,6.748046875,107,215.0,0.0
3456,6.75,108,225.0,0.0
3457,6.751953125,108,215.0,0.0
3458,6.75390625,108,214.0,0.0
3459,6.755859375,108,200.0,0.0
3460,6.7578125,108,167.0,0.0
3461,6.759765625,108,156.0,0.0
3462,6.76171875,108,140.0,0.0
3463,6.763671875,108,86.0,0.0
3464,6.765625,108,52.0,0.0
3465,6.767578125,108,70.0,0.0
3466,6.76953125,108,118.0,0.0
3467,6.771484375,108,168.0,0.0
3468,6.7734375,108,185.0,0.0
3469,6.775390625,108,157.0,0.0
3470,6.77734375,108,124.0,0.0
3471,6.779296875,108,108.0,0.0
3472,6.78125,108,133.0,0.0
3473,6.783203125,108,166.0,0.0
3474,6.78515625,108,180.0,0.0
3475,6.787109375,108,168.0,0.0
3476,6.7890625,108,154.0,0.0
3477,6.791015625,108,136.0,0.0
3478,6.79296875,108,114.0,0.0
3479,6.794921875,108,92.0,0.0
3480,6.796875,108,104.0,0.0
3481,6.798828125,108,137.0,0.0
3482,6.80078125,108,161.0,0.0
3483,6.802734375,108,156.0,0.0
3484,6.8046875,108,153.0,0.0
3485,6.806640625,108,150.0,0.0
3486,6.80859375,108,136.0,0.0
3487,6.810546875,108,135.0,0.0
3488,6.8125,109,138.0,0.0
3489,6.814453125,109,124.0,0.0
3490,6.81640625,109,90.0,0.0
3491,6.818359375,109,54.0,0.0
3492,6.8203125,109,18.0,0.0
3493,6.822265625,109,20.0,0.0
3494,6.82421875,109,56.0,0.0
3495,6.826171875,109,88.0,0.0
3496,6.828125,109,84.0,0.0
3497,6.830078125,109,80.0,0.0
3498,6.83203125,109,99.0,0.0
3499,6.833984375,109,101.0,0.0
3500,6.8359375,109,56.0,0.0
3501,6.837890625,109,18.0,0.0
3502,6.83984375,109,40.0,0.0
3503,6.841796875,109,93.0,0.0
3504,6.84375,109,136.0,0.0
3505,6.845703125,109,151.0,0.0
3506,6.84765625,109,144.0,0.0
3507,6.849609375,109,122.0,0.0
3508,6.8515625,109,96.0,0.0
3509,6.853515625,109,67.0,0.0
3510,6.85546875,109,52.0,0.0
3511,6.857421875,109,50.0,0.0
3512,6.859375,109,68.0,0.0
3513,6.861328125,109,88.0,0.0
3514,6.86328125,109,101.0,0.0
3515,6.865234375,109,105.0,0.0
3516,6.8671875,109,117.0,0.0
3517,6.869140625,109,132.0,0.0
3518,6.87109375,109,131.0,0.0
3519,6.873046875,109,116.0,0.0
3520,6.875,110,100.0,0.0
3521,6.876953125,110,100.0,0.0
3522,6.87890625,110,87.0,0.0
3523,6.880859375,110,69.0,0.0
3524,6.8828125,110,68.0,0.0
3525,6.884765625,110,86.0,0.0
3526,6.88671875,110,124.0,0.0
3527,6.888671875,110,161.0,0.0
3528,6.890625,110,156.0,0.0
3529,6.892578125,110,124.0,0.0
3530,6.89453125,110,107.0,0.0
3531,6.896484375,110,105.0,0.0
3532,6.8984375,110,90.0,0.0
3533,6.900390625,110,60.0,0.0
3534,6.90234375,110,40.0,0.0
3535,6.904296875,110,27.0,0.0
3536,6.90625,110,26.0,0.0
3537,6.908203125,110,32.0,0.0
3538,6.91015625,110,43.0,0.0
3539,6.912109375,110,43.0,0.0
3540,6.9140625,110,28.0,0.0
3541,6.916015625,110,19.0,0.0
3542,6.91796875,110,-11.0,0.0
3543,6.919921875,110,-56.0,0.0
3544,6.921875,110,-74.0,0.0
3545,6.923828125,110,-73.0,0.0
3546,6.92578125,110,-72.0,0.0
3547,6.927734375,110,-49.0,0.0
3548,6.9296875,110,-14.0,0.0
3549,6.931640625,110,25.0,0.0
3550,6.93359375,110,67.0,0.0
3551,6.935546875,110,84.0,0.0
3552,6.9375,111,66.0,0.0
3553,6.939453125,111,28.0,0.0
3554,6.94140625,111,-1.0,0.0
3555,6.943359375,111,-12.0,0.0
3556,6.9453125,111,-12.0,0.0
3557,6.947265625,111,1.0,0.0
3558,6.94921875,111,6.0,0.0
3559,6.951171875,111,3.0,0.0
3560,6.953125,111,21.0,0.0
3561,6.955078125,111,55.0,0.0
3562,6.95703125,111,113.0,0.0
3563,6.958984375,111,168.0,0.0
3564,6.9609375,111,176.0,0.0
3565,6.962890625,111,134.0,0.0
3566,6.96484375,111,108.0,0.0
3567,6.966796875,111,130.0,0.0
3568,6.96875,111,132.0,0.0
3569,6.970703125,111,133.0,0.0
3570,6.97265625,111,134.0,0.0
3571,6.974609375,111,130.0,0.0
3572,6.9765625,111,153.0,0.0
3573,6.978515625,111,189.0,0.0
3574,6.98046875,111,204.0,0.0
3575,6.982421875,111,198.0,0.0
3576,6.984375,111,198.0,0.0
3577,6.986328125,111,197.0,0.0
3578,6.98828125,111,186.0,0.0
3579,6.990234375,111,188.0,0.0
3580,6.9921875,111,181.0,0.0
3581,6.994140625,111,167.0,0.0
3582,6.99609375,111,161.0,0.0
3583,6.998046875,111,141.0,0.0
3584,7.0,112,131.0,0.0
3585,7.001953125,112,145.0,0.0
3586,7.00390625,112,182.0,0.0
3587,7.005859375,112,211.0,0.0
3588,7.0078125,112,201.0,0.0
3589,7.009765625,112,193.0,0.0
3590,7.01171875,112,188.0,0.0
3591,7.013671875,112,187.0,0.0
3592,7.015625,112,166.0,0.0
3593,7.017578125,112,154.0,0.0
3594,7.01953125,112,149.0,0.0
3595,7.021484375,112,132.0,0.0
3596,7.0234375,112,114.0,0.0
3597,7.025390625,112,101.0,0.0
3598,7.02734375,112,106.0,0.0
3599,7.029296875,112,121.0,0.0
3600,7.03125,112,119.0,0.0
3601,7.033203125,112,86.0,0.0
3602,7.03515625,112,56.0,0.0
3603,7.037109375,112,71.0,0.0
3604,7.0390625,112,84.0,0.0
3605,7.041015625,112,60.0,0.0
3606,7.04296875,112,23.0,0.0
3607,7.044921875,112,1.0,0.0
3608,7.046875,112,6.0,0.0
3609,7.048828125,112,19.0,0.0
3610,7.05078125,112,28.0,0.0
3611,7.052734375,112,27.0,0.0
3612,7.0546875,112,24.0,0.0
3613,7.056640625,112,20.0,0.0
3614,7.05859375,112,13.0,0.0
3615,7.060546875,112,24.0,0.0
3616,7.0625,113,37.0,0.0
3617,7.064453125,113,40.0,0.0
3618,7.06640625,113,42.0,0.0
3619,7.068359375,113,48.0,0.0
3620,7.0703125,113,27.0,0.0
3621,7.072265625,113,-1.0,0.0
3622,7.07421875,113,-5.0,0.0
3623,7.076171875,113,-24.0,0.0
3624,7.078125,113,4.0,0.0
3625,7.080078125,113,75.0,0.0
3626,7.08203125,113,97.0,0.0
3627,7.083984375,113,89.0,0.0
3628,7.0859375,113,100.0,0.0
3629,7.087890625,113,136.0,0.0
3630,7.08984375,113,212.0,0.0
3631,7.091796875,113,266.0,0.0
3632,7.09375,113,224.0,0.0
3633,7.095703125,113,180.0,0.0
3634,7.09765625,113,178.0,0.0
3635,7.099609375,113,155.0,0.0
3636,7.1015625,113,76.0,0.0
3637,7.103515625,113,29.0,0.0
3638,7.10546875,113,26.0,0.0
3639,7.107421875,113,42.0,0.0
3640,7.109375,113,50.0,0.0
3641,7.111328125,113,51.0,0.0
3642,7.11328125,113,53.0,0.0
3643,7.115234375,113,55.0,0.0
3644,7.1171875,113,89.0,0.0
3645,7.119140625,113,119.0,0.0
3646,7.12109375,113,104.0,0.0
3647,7.123046875,113,69.0,0.0
3648,7.125,114,74.0,0.0
3649,7.126953125,114,118.0,0.0
3650,7.12890625,114,163.0,0.0
3651,7.130859375,114,194.0,0.0
3652,7.1328125,114,217.0,0.0
3653,7.134765625,114,218.0,0.0
3654,7.13671875,114,217.0,0.0
3655,7.138671875,114,234.0,0.0
3656,7.140625,114,242.0,0.0
3657,7.142578125,114,235.0,0.0
3658,7.14453125,114,242.0,0.0
3659,7.146484375,114,242.0,0.0
3660,7.1484375,114,232.0,0.0
3661,7.150390625,114,215.0,0.0
3662,7.15234375,114,193.0,0.0
3663,7.154296875,114,172.0,0.0
3664,7.15625,114,155.0,0.0
3665,7.158203125,114,140.0,0.0
3666,7.16015625,114,105.0,0.0
3667,7.162109375,114,98.0,0.0
3668,7.1640625,114,129.0,0.0
3669,7.166015625,114,154.0,0.0
3670,7.16796875,114,183.0,0.0
3671,7.169921875,114,217.0,0.0
3672,7.171875,114,241.0,0.0
3673,7.173828125,114,233.0,0.0
3674,7.17578125,114,194.0,0.0
3675,7.177734375,114,121.0,0.0
3676,7.1796875,114,72.0,0.0
3677,7.181640625,114,77.0,0.0
3678,7.18359375,114,75.0,0.0
3679,7.185546875,114,55.0,0.0
3680,7.1875,115,29.0,0.0
3681,7.189453125,115,-21.0,0.0
3682,7.19140625,115,-74.0,0.0
3683,7.193359375,115,-88.0,0.0
3684,7.1953125,115,-97.0,0.0
3685,7.197265625,115,-109.0,0.0
3686,7.19921875,115,-68.0,0.0
3687,7.201171875,115,-8.0,0.0
3688,7.203125,115,-21.0,0.0
3689,7.205078125,115,-60.0,0.0
3690,7.20703125,115,-68.0,0.0
3691,7.208984375,115,-42.0,0.0
3692,7.2109375,115,-29.0,0.0
3693,7.212890625,115,-60.0,0.0
3694,7.21484375,115,-99.0,0.0
3695,7.216796875,115,-151.0,0.0
3696,7.21875,115,-217.0,0.0
3697,7.220703125,115,-231.0,0.0
3698,7.22265625,115,-199.0,0.0
3699,7.224609375,115,-146.0,0.0
3700,7.2265625,115,-108.0,0.0
3701,7.228515625,115,-109.0,0.0
3702,7.23046875,115,-132.0,0.0
3703,7.232421875,115,-156.0,0.0
3704,7.234375,115,-155.0,0.0
3705,7.236328125,115,-152.0,0.0
3706,7.23828125,115,-178.0,0.0
3707,7.240234375,115,-217.0,0.0
3708,7.2421875,115,-241.0,0.0
3709,7.244140625,115,-253.0,0.0
3710,7.24609375,115,-264.0,0.0
3711,7.248046875,115,-263.0,0.0
3712,7.25,116,-267.0,0.0
3713,7.251953125,116,-270.0,0.0
3714,7.25390625,116,-265.0,0.0
3715,7.255859375,116,-244.0,0.0
3716,7.2578125,116,-209.0,0.0
3717,7.259765625,116,-162.0,0.0
3718,7.26171875,116,-120.0,0.0
3719,7.263671875,116,-130.0,0.0
3720,7.265625,116,-139.0,0.0
3721,7.267578125,116,-131.0,0.0
3722,7.26953125,116,-154.0,0.0
3723,7.271484375,116,-157.0,0.0
3724,7.2734375,116,-102.0,0.0
3725,7.275390625,116,-34.0,0.0
3726,7.27734375,116,1.0,0.0
3727,7.279296875,116,3.0,0.0
3728,7.28125,116,17.0,0.0
3729,7.283203125,116,40.0,0.0
3730,7.28515625,116,67.0,0.0
3731,7.287109375,116,87.0,0.0
3732,7.2890625,116,77.0,0.0
3733,7.291015625,116,43.0,0.0
3734,7.29296875,116,2.0,0.0
3735,7.294921875,116,-23.0,0.0
3736,7.296875,116,-39.0,0.0
3737,7.298828125,116,-54.0,0.0
3738,7.30078125,116,-56.0,0.0
3739,7.302734375,116,-34.0,0.0
3740,7.3046875,116,-7.0,0.0
3741,7.306640625,116,18.0,0.0
3742,7.30859375,116,44.0,0.0
3743,7.310546875,116,51.0,0.0
3744,7.3125,117,18.0,0.0
3745,7.314453125,117,-14.0,0.0
3746,7.31640625,117,-29.0,0.0
3747,7.318359375,117,-28.0,0.0
3748,7.3203125,117,-9.0,0.0
3749,7.322265625,117,-19.0,0.0
3750,7.32421875,117,-39.0,0.0
3751,7.326171875,117,-25.0,0.0
3752,7.328125,117,-2.0,0.0
3753,7.330078125,117,-3.0,0.0
3754,7.33203125,117,4.0,0.0
3755,7.333984375,117,38.0,0.0
3756,7.3359375,117,57.0,0.0
3757,7.337890625,117,24.0,0.0
3758,7.33984375,117,0.0,0.0
3759,7.341796875,117,26.0,0.0
3760,7.34375,117,71.0,0.0
3761,7.345703125,117,77.0,0.0
3762,7.34765625,117,83.0,0.0
3763,7.349609375,117,84.0,0.0
3764,7.3515625,117,53.0,0.0
3765,7.353515625,117,18.0,0.0
3766,7.35546875,117,-5.0,0.0
3767,7.357421875,117,-9.0,0.0
3768,7.359375,117,-26.0,0.0
3769,7.361328125,117,-55.0,0.0
3770,7.36328125,117,-56.0,0.0
3771,7.365234375,117,-45.0,0.0
3772,7.3671875,117,-44.0,0.0
3773,7.369140625,117,-53.0,0.0
3774,7.37109375,117,-34.0,0.0
3775,7.373046875,117,17.0,0.0
3776,7.375,118,50.0,0.0
3777,7.376953125,118,44.0,0.0
3778,7.37890625,118,42.0,0.0
3779,7.380859375,118,74.0,0.0
3780,7.3828125,118,114.0,0.0
3781,7.384765625,118,132.0,0.0
3782,7.38671875,118,145.0,0.0
3783,7.388671875,118,166.0,0.0
3784,7.390625,118,178.0,0.0
3785,7.392578125,118,178.0,0.0
3786,7.39453125,118,178.0,0.0
3787,7.396484375,118,171.0,0.0
3788,7.3984375,118,162.0,0.0
3789,7.400390625,118,149.0,0.0
3790,7.40234375,118,145.0,0.0
3791,7.404296875,118,138.0,0.0
3792,7.40625,118,133.0,0.0
3793,7.408203125,118,106.0,0.0
3794,7.41015625,118,68.0,0.0
3795,7.412109375,118,58.0,0.0
3796,7.4140625,118,88.0,0.0
3797,7.416015625,118,114.0,0.0
3798,7.41796875,118,99.0,0.0
3799,7.419921875,118,68.0,0.0
3800,7.421875,118,64.0,0.0
3801,7.423828125,118,83.0,0.0
3802,7.42578125,118,93.0,0.0
3803,7.427734375,118,93.0,0.0
3804,7.4296875,118,76.0,0.0
3805,7.431640625,118,76.0,0.0
3806,7.43359375,118,90.0,0.0
3807,7.435546875,118,104.0,0.0
3808,7.4375,119,97.0,0.0
3809,7.439453125,119,77.0,0.0
3810,7.44140625,119,82.0,0.0
3811,7.443359375,119,101.0,0.0
3812,7.4453125,119,122.0,0.0
3813,7.447265625,119,124.0,0.0
3814,7.44921875,119,103.0,0.0
3815,7.451171875,119,84.0,0.0
3816,7.453125,119,89.0,0.0
3817,7.455078125,119,118.0,0.0
3818,7.45703125,119,137.0,0.0
3819,7.458984375,119,109.0,0.0
3820,7.4609375,119,80.0,0.0
3821,7.462890625,119,67.0,0.0
3822,7.46484375,119,54.0,0.0
3823,7.466796875,119,38.0,0.0
3824,7.46875,119,13.0,0.0
3825,7.470703125,119,-6.0,0.0
3826,7.47265625,119,-28.0,0.0
3827,7.474609375,119,-35.0,0.0
3828,7.4765625,119,-24.0,0.0
3829,7.478515625,119,-12.0,0.0
3830,7.48046875,119,-17.0,0.0
3831,7.482421875,119,-29.0,0.0
3832,7.484375,119,-37.0,0.0
3833,7.486328125,119,-44.0,0.0
3834,7.48828125,119,-38.0,0.0
3835,7.490234375,119,-29.0,0.0
3836,7.4921875,119,-26.0,0.0
3837,7.494140625,119,-9.0,0.0
3838,7.49609375,119,-3.0,0.0
3839,7.498046875,119,-7.0,0.0
3840,7.5,120,7.0,0.0
3841,7.501953125,120,32.0,0.0
3842,7.50390625,120,50.0,0.0
3843,7.505859375,120,72.0,0.0
3844,7.5078125,120,80.0,0.0
3845,7.509765625,120,50.0,0.0
3846,7.51171875,120,35.0,0.0
3847,7.513671875,120,57.0,0.0
3848,7.515625,120,69.0,0.0
3849,7.517578125,120,38.0,0.0
3850,7.51953125,120,-21.0,0.0
3851,7.521484375,120,-73.0,0.0
3852,7.5234375,120,-89.0,0.0
3853,7.525390625,120,-99.0,0.0
3854,7.52734375,120,-118.0,0.0
3855,7.529296875,120,-107.0,0.0
3856,7.53125,120,-53.0,0.0
3857,7.533203125,120,20.0,0.0
3858,7.53515625,120,86.0,0.0
3859,7.537109375,120,121.0,0.0
3860,7.5390625,120,137.0,0.0
3861,7.541015625,120,167.0,0.0
3862,7.54296875,120,173.0,0.0
3863,7.544921875,120,134.0,0.0
3864,7.546875,120,81.0,0.0
3865,7.548828125,120,53.0,0.0
3866,7.55078125,120,22.0,0.0
3867,7.552734375,120,-1.0,0.0
3868,7.5546875,120,-5.0,0.0
3869,7.556640625,120,-9.0,0.0
3870,7.55859375,120,-7.0,0.0
3871,7.560546875,120,20.0,0.0
3872,7.5625,121,56.0,0.0
3873,7.564453125,121,72.0,0.0
3874,7.56640625,121,64.0,0.0
3875,7.568359375,121,80.0,0.0
3876,7.5703125,121,81.0,0.0
3877,7.572265625,121,44.0,0.0
3878,7.57421875,121,40.0,0.0
3879,7.576171875,121,23.0,0.0
3880,7.578125,121,-9.0,0.0
3881,7.580078125,121,-17.0,0.0
3882,7.58203125,121,26.0,0.0
3883,7.583984375,121,88.0,0.0
3884,7.5859375,121,114.0,0.0
3885,7.587890625,121,84.0,0.0
3886,7.58984375,121,55.0,0.0
3887,7.591796875,121,11.0,0.0
3888,7.59375,121,-25.0,0.0
3889,7.595703125,121,4.0,0.0
3890,7.59765625,121,121.0,0.0
3891,7.599609375,121,247.0,0.0
3892,7.6015625,121,268.0,0.0
3893,7.603515625,121,228.0,0.0
3894,7.60546875,121,241.0,0.0
3895,7.607421875,121,316.0,0.0
3896,7.609375,121,354.0,0.0
3897,7.611328125,121,323.0,0.0
3898,7.61328125,121,284.0,0.0
3899,7.615234375,121,275.0,0.0
3900,7.6171875,121,268.0,0.0
3901,7.619140625,121,251.0,0.0
3902,7.62109375,121,263.0,0.0
3903,7.623046875,121,265.0,0.0
3904,7.625,122,237.0,0.0
3905,7.626953125,122,211.0,0.0
3906,7.62890625,122,171.0,0.0
3907,7.630859375,122,116.0,0.0
3908,7.6328125,122,112.0,0.0
3909,7.634765625,122,182.0,0.0
3910,7.63671875,122,261.0,0.0
3911,7.638671875,122,309.0,0.0
3912,7.640625,122,353.0,0.0
3913,7.642578125,122,437.0,0.0
3914,7.64453125,122,519.0,0.0
3915,7.646484375,122,499.0,0.0
3916,7.6484375,122,421.0,0.0
3917,7.650390625,122,321.0,0.0
3918,7.65234375,122,260.0,0.0
3919,7.654296875,122,280.0,0.0
3920,7.65625,122,300.0,0.0
3921,7.658203125,122,311.0,0.0
3922,7.66015625,122,336.0,0.0
3923,7.662109375,122,355.0,0.0
3924,7.6640625,122,325.0,0.0
3925,7.666015625,122,266.0,0.0
3926,7.66796875,122,226.0,0.0
3927,7.669921875,122,216.0,0.0
3928,7.671875,122,232.0,0.0
3929,7.673828125,122,232.0,0.0
3930,7.67578125,122,217.0,0.0
3931,7.677734375,122,220.0,0.0
3932,7.6796875,122,220.0,0.0
3933,7.681640625,122,196.0,0.0
3934,7.68359375,122,152.0,0.0
3935,7.685546875,122,138.0,0.0
3936,7.6875,123,152.0,0.0
3937,7.689453125,123,147.0,0.0
3938,7.69140625,123,103.0,0.0
3939,7.693359375,123,54.0,0.0
3940,7.6953125,123,11.0,0.0
3941,7.697265625,123,-2.0,0.0
3942,7.69921875,123,5.0,0.0
3943,7.701171875,123,0.0,0.0
3944,7.703125,123,-23.0,0.0
3945,7.705078125,123,-61.0,0.0
3946,7.70703125,123,-100.0,0.0
3947,7.708984375,123,-99.0,0.0
3948,7.7109375,123,-67.0,0.0
3949,7.712890625,123,-17.0,0.0
3950,7.71484375,123,33.0,0.0
3951,7.716796875,123,53.0,0.0
3952,7.71875,123,43.0,0.0
3953,7.720703125,123,41.0,0.0
3954,7.72265625,123,71.0,0.0
3955,7.724609375,123,115.0,0.0
3956,7.7265625,123,92.0,0.0
3957,7.728515625,123,2.0,0.0
3958,7.73046875,123,-42.0,0.0
3959,7.732421875,123,-8.0,0.0
3960,7.734375,123,18.0,0.0
3961,7.736328125,123,-1.0,0.0
3962,7.73828125,123,-18.0,0.0
3963,7.740234375,123,-18.0,0.0
3964,7.7421875,123,5.0,0.0
3965,7.744140625,123,42.0,0.0
3966,7.74609375,123,60.0,0.0
3967,7.748046875,123,59.0,0.0
3968,7.75,124,52.0,0.0
3969,7.751953125,124,36.0,0.0
3970,7.75390625,124,6.0,0.0
3971,7.755859375,124,-17.0,0.0
3972,7.7578125,124,-28.0,0.0
3973,7.759765625,124,-57.0,0.0
3974,7.76171875,124,-66.0,0.0
3975,7.763671875,124,-71.0,0.0
3976,7.765625,124,-108.0,0.0
3977,7.767578125,124,-109.0,0.0
3978,7.76953125,124,-44.0,0.0
3979,7.771484375,124,6.0,0.0
3980,7.7734375,124,10.0,0.0
3981,7.775390625,124,4.0,0.0
3982,7.77734375,124,1.0,0.0
3983,7.779296875,124,19.0,0.0
3984,7.78125,124,64.0,0.0
3985,7.783203125,124,87.0,0.0
3986,7.78515625,124,101.0,0.0
3987,7.787109375,124,91.0,0.0
3988,7.7890625,124,54.0,0.0
3989,7.791015625,124,43.0,0.0
3990,7.79296875,124,54.0,0.0
3991,7.794921875,124,52.0,0.0
3992,7.796875,124,32.0,0.0
3993,7.798828125,124,-3.0,0.0
3994,7.80078125,124,-24.0,0.0
3995,7.802734375,124,-5.0,0.0
3996,7.8046875,124,24.0,0.0
3997,7.806640625,124,40.0,0.0
3998,7.80859375,124,52.0,0.0
3999,7.810546875,124,85.0,0.0
4000,7.8125,125,123.0,0.0
4001,7.814453125,125,130.0,0.0
4002,7.81640625,125,114.0,0.0
4003,7.818359375,125,88.0,0.0
4004,7.8203125,125,48.0,0.0
4005,7.822265625,125,-14.0,0.0
4006,7.82421875,125,-65.0,0.0
4007,7.826171875,125,-67.0,0.0
4008,7.828125,125,-49.0,0.0
4009,7.830078125,125,-20.0,0.0
4010,7.83203125,125,-8.0,0.0
4011,7.833984375,125,-26.0,0.0
4012,7.8359375,125,-42.0,0.0
4013,7.837890625,125,-34.0,0.0
4014,7.83984375,125,-9.0,0.0
4015,7.841796875,125,9.0,0.0
4016,7.84375,125,-3.0,0.0
4017,7.845703125,125,-20.0,0.0
4018,7.84765625,125,-26.0,0.0
4019,7.849609375,125,11.0,0.0
4020,7.8515625,125,76.0,0.0
4021,7.853515625,125,87.0,0.0
4022,7.85546875,125,54.0,0.0
4023,7.857421875,125,61.0,0.0
4024,7.859375,125,118.0,0.0
4025,7.861328125,125,168.0,0.0
4026,7.86328125,125,165.0,0.0
4027,7.865234375,125,145.0,0.0
4028,7.8671875,125,149.0,0.0
4029,7.869140625,125,163.0,0.0
4030,7.87109375,125,138.0,0.0
4031,7.873046875,125,89.0,0.0
4032,7.875,126,69.0,0.0
4033,7.876953125,126,60.0,0.0
4034,7.87890625,126,50.0,0.0
4035,7.880859375,126,44.0,0.0
4036,7.8828125,126,28.0,0.0
4037,7.884765625,126,12.0,0.0
4038,7.88671875,126,13.0,0.0
4039,7.888671875,126,19.0,0.0
4040,7.890625,126,56.0,0.0
4041,7.892578125,126,114.0,0.0
4042,7.89453125,126,120.0,0.0
4043,7.896484375,126,74.0,0.0
4044,7.8984375,126,29.0,0.0
4045,7.900390625,126,23.0,0.0
4046,7.90234375,126,23.0,0.0
4047,7.904296875,126,19.0,0.0
4048,7.90625,126,32.0,0.0
4049,7.908203125,126,41.0,0.0
4050,7.91015625,126,11.0,0.0
4051,7.912109375,126,-10.0,0.0
4052,7.9140625,126,-14.0,0.0
4053,7.916015625,126,-42.0,0.0
4054,7.91796875,126,-61.0,0.0
4055,7.919921875,126,-77.0,0.0
4056,7.921875,126,-125.0,0.0
4057,7.923828125,126,-172.0,0.0
4058,7.92578125,126,-150.0,0.0
4059,7.927734375,126,-54.0,0.0
4060,7.9296875,126,21.0,0.0
4061,7.931640625,126,21.0,0.0
4062,7.93359375,126,-11.0,0.0
4063,7.935546875,126,-21.0,0.0
4064,7.9375,127,5.0,0.0
4065,7.939453125,127,26.0,0.0
4066,7.94140625,127,21.0,0.0
4067,7.943359375,127,-9.0,0.0
4068,7.9453125,127,-70.0,0.0
4069,7.947265625,127,-125.0,0.0
4070,7.94921875,127,-139.0,0.0
4071,7.951171875,127,-130.0,0.0
4072,7.953125,127,-116.0,0.0
4073,7.955078125,127,-93.0,0.0
4074,7.95703125,127,-87.0,0.0
4075,7.958984375,127,-98.0,0.0
4076,7.9609375,127,-114.0,0.0
4077,7.962890625,127,-132.0,0.0
4078,7.96484375,127,-131.0,0.0
4079,7.966796875,127,-135.0,0.0
4080,7.96875,127,-173.0,0.0
4081,7.970703125,127,-190.0,0.0
4082,7.97265625,127,-167.0,0.0
4083,7.974609375,127,-122.0,0.0
4084,7.9765625,127,-71.0,0.0
4085,7.978515625,127,-51.0,0.0
4086,7.98046875,127,-65.0,0.0
4087,7.982421875,127,-49.0,0.0
4088,7.984375,127,-7.0,0.0
4089,7.986328125,127,26.0,0.0
4090,7.98828125,127,41.0,0.0
4091,7.990234375,127,34.0,0.0
4092,7.9921875,127,37.0,0.0
4093,7.994140625,127,49.0,0.0
4094,7.99609375,127,90.0,0.0
4095,7.998046875,127,166.0,0.0
4096,8.0,128,219.0,0.0
4097,8.001953125,128,219.0,0.0
4098,8.00390625,128,192.0,0.0
4099,8.005859375,128,180.0,0.0
4100,8.0078125,128,162.0,0.0
4101,8.009765625,128,140.0,0.0
4102,8.01171875,128,120.0,0.0
4103,8.013671875,128,91.0,0.0
4104,8.015625,128,72.0,0.0
4105,8.017578125,128,56.0,0.0
4106,8.01953125,128,38.0,0.0
4107,8.021484375,128,7.0,0.0
4108,8.0234375,128,-8.0,0.0
4109,8.025390625,128,-10.0,0.0
4110,8.02734375,128,-11.0,0.0
4111,8.029296875,128,-2.0,0.0
4112,8.03125,128,-6.0,0.0
4113,8.033203125,128,-22.0,0.0
4114,8.03515625,128,-23.0,0.0
4115,8.037109375,128,10.0,0.0
4116,8.0390625,128,64.0,0.0
4117,8.041015625,128,40.0,0.0
4118,8.04296875,128,-29.0,0.0
4119,8.044921875,128,-73.0,0.0
4120,8.046875,128,-52.0,0.0
4121,8.048828125,128,6.0,0.0
4122,8.05078125,128,65.0,0.0
4123,8.052734375,128,120.0,0.0
4124,8.0546875,128,150.0,0.0
4125,8.056640625,128,144.0,0.0
4126,8.05859375,128,117.0,0.0
4127,8.060546875,128,117.0,0.0
4128,8.0625,129,133.0,0.0
4129,8.064453125,129,139.0,0.0
4130,8.06640625,129,144.0,0.0
4131,8.068359375,129,112.0,0.0
4132,8.0703125,129,45.0,0.0
4133,8.072265625,129,39.0,0.0
4134,8.07421875,129,104.0,0.0
4135,8.076171875,129,128.0,0.0
4136,8.078125,129,75.0,0.0
4137,8.080078125,129,35.0,0.0
4138,8.08203125,129,6.0,0.0
4139,8.083984375,129,-10.0,0.0
4140,8.0859375,129,-21.0,0.0
4141,8.087890625,129,-19.0,0.0
4142,8.08984375,129,-10.0,0.0
4143,8.091796875,129,1.0,0.0
4144,8.09375,129,8.0,0.0
4145,8.095703125,129,42.0,0.0
4146,8.09765625,129,88.0,0.0
4147,8.099609375,129,114.0,0.0
4148,8.1015625,129,103.0,0.0
4149,8.103515625,129,82.0,0.0
4150,8.10546875,129,72.0,0.0
4151,8.107421875,129,98.0,0.0
4152,8.109375,129,115.0,0.0
4153,8.111328125,129,104.0,0.0
4154,8.11328125,129,68.0,0.0
4155,8.115234375,129,44.0,0.0
4156,8.1171875,129,61.0,0.0
4157,8.119140625,129,96.0,0.0
4158,8.12109375,129,120.0,0.0
4159,8.123046875,129,148.0,0.0
4160,8.125,130,172.0,0.0
4161,8.126953125,130,197.0,0.0
4162,8.12890625,130,242.0,0.0
4163,8.130859375,130,268.0,0.0
4164,8.1328125,130,256.0,0.0
4165,8.134765625,130,216.0,0.0
4166,8.13671875,130,193.0,0.0
4167,8.138671875,130,170.0,0.0
4168,8.140625,130,155.0,0.0
4169,8.142578125,130,156.0,0.0
4170,8.14453125,130,155.0,0.0
4171,8.146484375,130,150.0,0.0
4172,8.1484375,130,150.0,0.0
4173,8.150390625,130,138.0,0.0
4174,8.15234375,130,121.0,0.0
4175,8.154296875,130,112.0,0.0
4176,8.15625,130,81.0,0.0
4177,8.158203125,130,50.0,0.0
4178,8.16015625,130,53.0,0.0
4179,8.162109375,130,50.0,0.0
4180,8.1640625,130,-2.0,0.0
4181,8.166015625,130,-14.0,0.0
4182,8.16796875,130,13.0,0.0
4183,8.169921875,130,11.0,0.0
4184,8.171875,130,-12.0,0.0
4185,8.173828125,130,-6.0,0.0
4186,8.17578125,130,6.0,0.0
4187,8.177734375,130,17.0,0.0
4188,8.1796875,130,23.0,0.0
4189,8.181640625,130,-3.0,0.0
4190,8.18359375,130,-42.0,0.0
4191,8.185546875,130,-68.0,0.0
4192,8.1875,131,-54.0,0.0
4193,8.189453125,131,-13.0,0.0
4194,8.19140625,131,20.0,0.0
4195,8.193359375,131,2.0,0.0
4196,8.1953125,131,-30.0,0.0
4197,8.197265625,131,-40.0,0.0
4198,8.19921875,131,-50.0,0.0
4199,8.201171875,131,-73.0,0.0
4200,8.203125,131,-107.0,0.0
4201,8.205078125,131,-100.0,0.0
4202,8.20703125,131,-68.0,0.0
4203,8.208984375,131,-51.0,0.0
4204,8.2109375,131,-34.0,0.0
4205,8.212890625,131,-19.0,0.0
4206,8.21484375,131,-3.0,0.0
4207,8.216796875,131,1.0,0.0
4208,8.21875,131,-41.0,0.0
4209,8.220703125,131,-86.0,0.0
4210,8.22265625,131,-75.0,0.0
4211,8.224609375,131,-40.0,0.0
4212,8.2265625,131,-13.0,0.0
4213,8.228515625,131,-8.0,0.0
4214,8.23046875,131,-35.0,0.0
4215,8.232421875,131,-67.0,0.0
4216,8.234375,131,-60.0,0.0
4217,8.236328125,131,-40.0,0.0
4218,8.23828125,131,-40.0,0.0
4219,8.240234375,131,-28.0,0.0
4220,8.2421875,131,-9.0,0.0
4221,8.244140625,131,-6.0,0.0
4222,8.24609375,131,2.0,0.0
4223,8.248046875,131,20.0,0.0
4224,8.25,132,39.0,0.0
4225,8.251953125,132,60.0,0.0
4226,8.25390625,132,87.0,0.0
4227,8.255859375,132,89.0,0.0
4228,8.2578125,132,83.0,0.0
4229,8.259765625,132,88.0,0.0
4230,8.26171875,132,103.0,0.0
4231,8.263671875,132,146.0,0.0
4232,8.265625,132,196.0,0.0
4233,8.267578125,132,215.0,0.0
4234,8.26953125,132,197.0,0.0
4235,8.271484375,132,181.0,0.0
4236,8.2734375,132,205.0,0.0
4237,8.275390625,132,228.0,0.0
4238,8.27734375,132,218.0,0.0
4239,8.279296875,132,186.0,0.0
4240,8.28125,132,163.0,0.0
4241,8.283203125,132,170.0,0.0
4242,8.28515625,132,217.0,0.0
4243,8.287109375,132,244.0,0.0
4244,8.2890625,132,212.0,0.0
4245,8.291015625,132,133.0,0.0
4246,8.29296875,132,96.0,0.0
4247,8.294921875,132,112.0,0.0
4248,8.296875,132,130.0,0.0
4249,8.298828125,132,120.0,0.0
4250,8.30078125,132,105.0,0.0
4251,8.302734375,132,87.0,0.0
4252,8.3046875,132,61.0,0.0
4253,8.306640625,132,27.0,0.0
4254,8.30859375,132,-30.0,0.0
4255,8.310546875,132,-84.0,0.0
4256,8.3125,133,-93.0,0.0
4257,8.314453125,133,-73.0,0.0
4258,8.31640625,133,-70.0,0.0
4259,8.318359375,133,-91.0,0.0
4260,8.3203125,133,-72.0,0.0
4261,8.322265625,133,-24.0,0.0
4262,8.32421875,133,4.0,0.0
4263,8.326171875,133,-6.0,0.0
4264,8.328125,133,-13.0,0.0
4265,8.330078125,133,8.0,0.0
4266,8.33203125,133,8.0,0.0
4267,8.333984375,133,-7.0,0.0
4268,8.3359375,133,-8.0,0.0
4269,8.337890625,133,3.0,0.0
4270,8.33984375,133,9.0,0.0
4271,8.341796875,133,27.0,0.0
4272,8.34375,133,59.0,0.0
4273,8.345703125,133,64.0,0.0
4274,8.34765625,133,17.0,0.0
4275,8.349609375,133,-27.0,0.0
4276,8.3515625,133,-46.0,0.0
4277,8.353515625,133,-30.0,0.0
4278,8.35546875,133,2.0,0.0
4279,8.357421875,133,7.0,0.0
4280,8.359375,133,-28.0,0.0
4281,8.361328125,133,-68.0,0.0
4282,8.36328125,133,-90.0,0.0
4283,8.365234375,133,-57.0,0.0
4284,8.3671875,133,-17.0,0.0
4285,8.369140625,133,2.0,0.0
4286,8.37109375,133,0.0,0.0
4287,8.373046875,133,-6.0,0.0
4288,8.375,134,-19.0,0.0
4289,8.376953125,134,-35.0,0.0
4290,8.37890625,134,-28.0,0.0
4291,8.380859375,134,-4.0,0.0
4292,8.3828125,134,-5.0,0.0
4293,8.384765625,134,-17.0,0.0
4294,8.38671875,134,-26.0,0.0
4295,8.388671875,134,-42.0,0.0
4296,8.390625,134,-40.0,0.0
4297,8.392578125,134,-14.0,0.0
4298,8.39453125,134,9.0,0.0
4299,8.396484375,134,40.0,0.0
4300,8.3984375,134,53.0,0.0
4301,8.400390625,134,43.0,0.0
4302,8.40234375,134,22.0,0.0
4303,8.404296875,134,11.0,0.0
4304,8.40625,134,32.0,0.0
4305,8.408203125,134,50.0,0.0
4306,8.41015625,134,42.0,0.0
4307,8.412109375,134,23.0,0.0
4308,8.4140625,134,11.0,0.0
4309,8.416015625,134,22.0,0.0
4310,8.41796875,134,35.0,0.0
4311,8.419921875,134,23.0,0.0
4312,8.421875,134,6.0,0.0
4313,8.423828125,134,6.0,0.0
4314,8.42578125,134,17.0,0.0
4315,8.427734375,134,44.0,0.0
4316,8.4296875,134,88.0,0.0
4317,8.431640625,134,131.0,0.0
4318,8.43359375,134,117.0,0.0
4319,8.435546875,134,72.0,0.0
4320,8.4375,135,37.0,0.0
4321,8.439453125,135,25.0,0.0
4322,8.44140625,135,28.0,0.0
4323,8.443359375,135,22.0,0.0
4324,8.4453125,135,1.0,0.0
4325,8.447265625,135,-13.0,0.0
4326,8.44921875,135,-8.0,0.0
4327,8.451171875,135,5.0,0.0
4328,8.453125,135,26.0,0.0
4329,8.455078125,135,52.0,0.0
4330,8.45703125,135,85.0,0.0
4331,8.458984375,135,103.0,0.0
4332,8.4609375,135,75.0,0.0
4333,8.462890625,135,19.0,0.0
4334,8.46484375,135,-14.0,0.0
4335,8.466796875,135,-27.0,0.0
4336,8.46875,135,-39.0,0.0
4337,8.470703125,135,-29.0,0.0
4338,8.47265625,135,-24.0,0.0
4339,8.474609375,135,-39.0,0.0
4340,8.4765625,135,-27.0,0.0
4341,8.478515625,135,6.0,0.0
4342,8.48046875,135,29.0,0.0
4343,8.482421875,135,12.0,0.0
4344,8.484375,135,-6.0,0.0
4345,8.486328125,135,-7.0,0.0
4346,8.48828125,135,-25.0,0.0
4347,8.490234375,135,-56.0,0.0
4348,8.4921875,135,-40.0,0.0
4349,8.494140625,135,-6.0,0.0
4350,8.49609375,135,8.0,0.0
4351,8.498046875,135,34.0,0.0
4352,8.5,136,44.0,0.0
4353,8.501953125,136,17.0,0.0
4354,8.50390625,136,0.0,0.0
4355,8.505859375,136,13.0,0.0
4356,8.5078125,136,22.0,0.0
4357,8.509765625,136,9.0,0.0
4358,8.51171875,136,-19.0,0.0
4359,8.513671875,136,-49.0,0.0
4360,8.515625,136,-66.0,0.0
4361,8.517578125,136,-66.0,0.0
4362,8.51953125,136,-53.0,0.0
4363,8.521484375,136,-68.0,0.0
4364,8.5234375,136,-105.0,0.0
4365,8.525390625,136,-117.0,0.0
4366,8.52734375,136,-113.0,0.0
4367,8.529296875,136,-116.0,0.0
4368,8.53125,136,-147.0,0.0
4369,8.533203125,136,-189.0,0.0
4370,8.53515625,136,-193.0,0.0
4371,8.537109375,136,-185.0,0.0
4372,8.5390625,136,-198.0,0.0
4373,8.541015625,136,-211.0,0.0
4374,8.54296875,136,-202.0,0.0
4375,8.544921875,136,-172.0,0.0
4376,8.546875,136,-138.0,0.0
4377,8.548828125,136,-123.0,0.0
4378,8.55078125,136,-117.0,0.0
4379,8.552734375,136,-117.0,0.0
4380,8.5546875,136,-109.0,0.0
4381,8.556640625,136,-99.0,0.0
4382,8.55859375,136,-85.0,0.0
4383,8.560546875,136,-58.0,0.0
4384,8.5625,137,-28.0,0.0
4385,8.564453125,137,-18.0,0.0
4386,8.56640625,137,-22.0,0.0
4387,8.568359375,137,-12.0,0.0
4388,8.5703125,137,26.0,0.0
4389,8.572265625,137,70.0,0.0
4390,8.57421875,137,90.0,0.0
4391,8.576171875,137,96.0,0.0
4392,8.578125,137,91.0,0.0
4393,8.580078125,137,92.0,0.0
4394,8.58203125,137,101.0,0.0
4395,8.583984375,137,107.0,0.0
4396,8.5859375,137,115.0,0.0
4397,8.587890625,137,113.0,0.0
4398,8.58984375,137,73.0,0.0
4399,8.591796875,137,12.0,0.0
4400,8.59375,137,-35.0,0.0
4401,8.595703125,137,-20.0,0.0
4402,8.59765625,137,37.0,0.0
4403,8.599609375,137,49.0,0.0
4404,8.6015625,137,23.0,0.0
4405,8.603515625,137,19.0,0.0
4406,8.60546875,137,44.0,0.0
4407,8.607421875,137,100.0,0.0
4408,8.609375,137,133.0,0.0
4409,8.611328125,137,93.0,0.0
4410,8.61328125,137,22.0,0.0
4411,8.615234375,137,8.0,0.0
4412,8.6171875,137,81.0,0.0
4413,8.619140625,137,166.0,0.0
4414,8.62109375,137,197.0,0.0
4415,8.623046875,137,193.0,0.0
4416,8.625,138,205.0,0.0
4417,8.626953125,138,240.0,0.0
4418,8.62890625,138,266.0,0.0
4419,8.630859375,138,250.0,0.0
4420,8.6328125,138,215.0,0.0
4421,8.634765625,138,245.0,0.0
4422,8.63671875,138,263.0,0.0
4423,8.638671875,138,213.0,0.0
4424,8.640625,138,129.0,0.0
4425,8.642578125,138,60.0,0.0
4426,8.64453125,138,59.0,0.0
4427,8.646484375,138,93.0,0.0
4428,8.6484375,138,122.0,0.0
4429,8.650390625,138,112.0,0.0
4430,8.65234375,138,49.0,0.0
4431,8.654296875,138,-13.0,0.0
4432,8.65625,138,-23.0,0.0
4433,8.658203125,138,0.0,0.0
4434,8.66015625,138,2.0,0.0
4435,8.662109375,138,-10.0,0.0
4436,8.6640625,138,-36.0,0.0
4437,8.666015625,138,-77.0,0.0
4438,8.66796875,138,-132.0,0.0
4439,8.669921875,138,-172.0,0.0
4440,8.671875,138,-177.0,0.0
4441,8.673828125,138,-146.0,0.0
4442,8.67578125,138,-78.0,0.0
4443,8.677734375,138,-17.0,0.0
4444,8.6796875,138,12.0,0.0
4445,8.681640625,138,8.0,0.0
4446,8.68359375,138,6.0,0.0
4447,8.685546875,138,45.0,0.0
4448,8.6875,139,91.0,0.0
4449,8.689453125,139,116.0,0.0
4450,8.69140625,139,91.0,0.0
4451,8.693359375,139,37.0,0.0
4452,8.6953125,139,12.0,0.0
4453,8.697265625,139,6.0,0.0
4454,8.69921875,139,-18.0,0.0
4455,8.701171875,139,-21.0,0.0
4456,8.703125,139,7.0,0.0
4457,8.705078125,139,23.0,0.0
4458,8.70703125,139,-2.0,0.0
4459,8.708984375,139,-33.0,0.0
4460,8.7109375,139,6.0,0.0
4461,8.712890625,139,70.0,0.0
4462,8.71484375,139,70.0,0.0
4463,8.716796875,139,12.0,0.0
4464,8.71875,139,-25.0,0.0
4465,8.720703125,139,-11.0,0.0
4466,8.72265625,139,27.0,0.0
4467,8.724609375,139,40.0,0.0
4468,8.7265625,139,37.0,0.0
4469,8.728515625,139,21.0,0.0
4470,8.73046875,139,2.0,0.0
4471,8.732421875,139,3.0,0.0
4472,8.734375,139,20.0,0.0
4473,8.736328125,139,33.0,0.0
4474,8.73828125,139,32.0,0.0
4475,8.740234375,139,20.0,0.0
4476,8.7421875,139,-1.0,0.0
4477,8.744140625,139,-6.0,0.0
4478,8.74609375,139,25.0,0.0
4479,8.748046875,139,42.0,0.0
4480,8.75,140,16.0,0.0
4481,8.751953125,140,-4.0,0.0
4482,8.75390625,140,9.0,0.0
4483,8.755859375,140,-1.0,0.0
4484,8.7578125,140,-26.0,0.0
4485,8.759765625,140,-55.0,0.0
4486,8.76171875,140,-78.0,0.0
4487,8.763671875,140,-87.0,0.0
4488,8.765625,140,-89.0,0.0
4489,8.767578125,140,-55.0,0.0
4490,8.76953125,140,-6.0,0.0
4491,8.771484375,140,7.0,0.0
4492,8.7734375,140,-3.0,0.0
4493,8.775390625,140,-22.0,0.0
4494,8.77734375,140,-34.0,0.0
4495,8.779296875,140,-18.0,0.0
4496,8.78125,140,-14.0,0.0
4497,8.783203125,140,-30.0,0.0
4498,8.78515625,140,-45.0,0.0
4499,8.787109375,140,-53.0,0.0
4500,8.7890625,140,-67.0,0.0
4501,8.791015625,140,-72.0,0.0
4502,8.79296875,140,-29.0,0.0
4503,8.794921875,140,10.0,0.0
4504,8.796875,140,-4.0,0.0
4505,8.798828125,140,-42.0,0.0
4506,8.80078125,140,-53.0,0.0
4507,8.802734375,140,-4.0,0.0
4508,8.8046875,140,67.0,0.0
4509,8.806640625,140,104.0,0.0
4510,8.80859375,140,104.0,0.0
4511,8.810546875,140,81.0,0.0
4512,8.8125,141,64.0,0.0
4513,8.814453125,141,51.0,0.0
4514,8.81640625,141,35.0,0.0
4515,8.818359375,141,22.0,0.0
4516,8.8203125,141,43.0,0.0
4517,8.822265625,141,102.0,0.0
4518,8.82421875,141,145.0,0.0
4519,8.826171875,141,138.0,0.0
4520,8.828125,141,135.0,0.0
4521,8.830078125,141,128.0,0.0
4522,8.83203125,141,70.0,0.0
4523,8.833984375,141,3.0,0.0
4524,8.8359375,141,-9.0,0.0
4525,8.837890625,141,22.0,0.0
4526,8.83984375,141,42.0,0.0
4527,8.841796875,141,19.0,0.0
4528,8.84375,141,17.0,0.0
4529,8.845703125,141,73.0,0.0
4530,8.84765625,141,104.0,0.0
4531,8.849609375,141,75.0,0.0
4532,8.8515625,141,59.0,0.0
4533,8.853515625,141,55.0,0.0
4534,8.85546875,141,23.0,0.0
4535,8.857421875,141,-4.0,0.0
4536,8.859375,141,-20.0,0.0
4537,8.861328125,141,-9.0,0.0
4538,8.86328125,141,3.0,0.0
4539,8.865234375,141,17.0,0.0
4540,8.8671875,141,20.0,0.0
4541,8.869140625,141,-3.0,0.0
4542,8.87109375,141,-28.0,0.0
4543,8.873046875,141,-76.0,0.0
4544,8.875,142,-118.0,0.0
4545,8.876953125,142,-90.0,0.0
4546,8.87890625,142,-22.0,0.0
4547,8.880859375,142,21.0,0.0
4548,8.8828125,142,4.0,0.0
4549,8.884765625,142,-24.0,0.0
4550,8.88671875,142,4.0,0.0
4551,8.888671875,142,69.0,0.0
4552,8.890625,142,105.0,0.0
4553,8.892578125,142,92.0,0.0
4554,8.89453125,142,60.0,0.0
4555,8.896484375,142,50.0,0.0
4556,8.8984375,142,60.0,0.0
4557,8.900390625,142,68.0,0.0
4558,8.90234375,142,60.0,0.0
4559,8.904296875,142,41.0,0.0
4560,8.90625,142,13.0,0.0
4561,8.908203125,142,8.0,0.0
4562,8.91015625,142,-2.0,0.0
4563,8.912109375,142,-12.0,0.0
4564,8.9140625,142,20.0,0.0
4565,8.916015625,142,68.0,0.0
4566,8.91796875,142,90.0,0.0
4567,8.919921875,142,97.0,0.0
4568,8.921875,142,109.0,0.0
4569,8.923828125,142,113.0,0.0
4570,8.92578125,142,70.0,0.0
4571,8.927734375,142,24.0,0.0
4572,8.9296875,142,20.0,0.0
4573,8.931640625,142,23.0,0.0
4574,8.93359375,142,23.0,0.0
4575,8.935546875,142,-4.0,0.0
4576,8.9375,143,-49.0,0.0
4577,8.939453125,143,-66.0,0.0
4578,8.94140625,143,-20.0,0.0
4579,8.943359375,143,42.0,0.0
4580,8.9453125,143,54.0,0.0
4581,8.947265625,143,27.0,0.0
4582,8.94921875,143,6.0,0.0
4583,8.951171875,143,8.0,0.0
4584,8.953125,143,48.0,0.0
4585,8.955078125,143,81.0,0.0
4586,8.95703125,143,85.0,0.0
4587,8.958984375,143,59.0,0.0
4588,8.9609375,143,12.0,0.0
4589,8.962890625,143,-37.0,0.0
4590,8.96484375,143,-56.0,0.0
4591,8.966796875,143,-18.0,0.0
4592,8.96875,143,68.0,0.0
4593,8.970703125,143,125.0,0.0
4594,8.97265625,143,113.0,0.0
4595,8.974609375,143,88.0,0.0
4596,8.9765625,143,96.0,0.0
4597,8.978515625,143,121.0,0.0
4598,8.98046875,143,153.0,0.0
4599,8.982421875,143,156.0,0.0
4600,8.984375,143,121.0,0.0
4601,8.986328125,143,109.0,0.0
4602,8.98828125,143,120.0,0.0
4603,8.990234375,143,146.0,0.0
4604,8.9921875,143,185.0,0.0
4605,8.994140625,143,228.0,0.0
4606,8.99609375,143,261.0,0.0
4607,8.998046875,143,274.0,0.0
4608,9.0,144,253.0,0.0
4609,9.001953125,144,196.0,0.0
4610,9.00390625,144,151.0,0.0
4611,9.005859375,144,147.0,0.0
4612,9.0078125,144,156.0,0.0
4613,9.009765625,144,167.0,0.0
4614,9.01171875,144,160.0,0.0
4615,9.013671875,144,118.0,0.0
4616,9.015625,144,102.0,0.0
4617,9.017578125,144,105.0,0.0
4618,9.01953125,144,105.0,0.0
4619,9.021484375,144,89.0,0.0
4620,9.0234375,144,65.0,0.0
4621,9.025390625,144,34.0,0.0
4622,9.02734375,144,5.0,0.0
4623,9.029296875,144,-10.0,0.0
4624,9.03125,144,-9.0,0.0
4625,9.033203125,144,7.0,0.0
4626,9.03515625,144,54.0,0.0
4627,9.037109375,144,91.0,0.0
4628,9.0390625,144,88.0,0.0
4629,9.041015625,144,55.0,0.0
4630,9.04296875,144,55.0,0.0
4631,9.044921875,144,105.0,0.0
4632,9.046875,144,154.0,0.0
4633,9.048828125,144,170.0,0.0
4634,9.05078125,144,166.0,0.0
4635,9.052734375,144,168.0,0.0
4636,9.0546875,144,151.0,0.0
4637,9.056640625,144,117.0,0.0
4638,9.05859375,144,92.0,0.0
4639,9.060546875,144,67.0,0.0
4640,9.0625,145,56.0,0.0
4641,9.064453125,145,71.0,0.0
4642,9.06640625,145,43.0,0.0
4643,9.068359375,145,-6.0,0.0
4644,9.0703125,145,3.0,0.0
4645,9.072265625,145,43.0,0.0
4646,9.07421875,145,53.0,0.0
4647,9.076171875,145,38.0,0.0
4648,9.078125,145,17.0,0.0
4649,9.080078125,145,18.0,0.0
4650,9.08203125,145,52.0,0.0
4651,9.083984375,145,67.0,0.0
4652,9.0859375,145,66.0,0.0
4653,9.087890625,145,73.0,0.0
4654,9.08984375,145,41.0,0.0
4655,9.091796875,145,-42.0,0.0
4656,9.09375,145,-113.0,0.0
4657,9.095703125,145,-65.0,0.0
4658,9.09765625,145,88.0,0.0
4659,9.099609375,145,243.0,0.0
4660,9.1015625,145,276.0,0.0
4661,9.103515625,145,224.0,0.0
4662,9.10546875,145,184.0,0.0
4663,9.107421875,145,185.0,0.0
4664,9.109375,145,224.0,0.0
4665,9.111328125,145,243.0,0.0
4666,9.11328125,145,210.0,0.0
4667,9.115234375,145,128.0,0.0
4668,9.1171875,145,73.0,0.0
4669,9.119140625,145,69.0,0.0
4670,9.12109375,145,73.0,0.0
4671,9.123046875,145,80.0,0.0
4672,9.125,146,130.0,0.0
4673,9.126953125,146,208.0,0.0
4674,9.12890625,146,233.0,0.0
4675,9.130859375,146,209.0,0.0
4676,9.1328125,146,169.0,0.0
4677,9.134765625,146,100.0,0.0
4678,9.13671875,146,85.0,0.0
4679,9.138671875,146,151.0,0.0
4680,9.140625,146,184.0,0.0
4681,9.142578125,146,103.0,0.0
4682,9.14453125,146,-19.0,0.0
4683,9.146484375,146,-78.0,0.0
4684,9.1484375,146,-75.0,0.0
4685,9.150390625,146,-35.0,0.0
4686,9.15234375,146,6.0,0.0
4687,9.154296875,146,13.0,0.0
4688,9.15625,146,-18.0,0.0
4689,9.158203125,146,-61.0,0.0
4690,9.16015625,146,-105.0,0.0
4691,9.162109375,146,-120.0,0.0
4692,9.1640625,146,-126.0,0.0
4693,9.166015625,146,-108.0,0.0
4694,9.16796875,146,-72.0,0.0
4695,9.169921875,146,-54.0,0.0
4696,9.171875,146,-44.0,0.0
4697,9.173828125,146,-43.0,0.0
4698,9.17578125,146,-66.0,0.0
4699,9.177734375,146,-123.0,0.0
4700,9.1796875,146,-202.0,0.0
4701,9.181640625,146,-264.0,0.0
4702,9.18359375,146,-291.0,0.0
4703,9.185546875,146,-282.0,0.0
4704,9.1875,147,-296.0,0.0
4705,9.189453125,147,-317.0,0.0
4706,9.19140625,147,-292.0,0.0
4707,9.193359375,147,-266.0,0.0
4708,9.1953125,147,-331.0,0.0
4709,9.197265625,147,-430.0,0.0
4710,9.19921875,147,-490.0,0.0
4711,9.201171875,147,-526.0,0.0
4712,9.203125,147,-561.0,0.0
4713,9.205078125,147,-599.0,0.0
4714,9.20703125,147,-614.0,0.0
4715,9.208984375,147,-583.0,0.0
4716,9.2109375,147,-538.0,0.0
4717,9.212890625,147,-539.0,0.0
4718,9.21484375,147,-570.0,0.0
4719,9.216796875,147,-620.0,0.0
4720,9.21875,147,-659.0,0.0
4721,9.220703125,147,-663.0,0.0
4722,9.22265625,147,-653.0,0.0
4723,9.224609375,147,-657.0,0.0
4724,9.2265625,147,-615.0,0.0
4725,9.228515625,147,-539.0,0.0
4726,9.23046875,147,-507.0,0.0
4727,9.232421875,147,-475.0,0.0
4728,9.234375,147,-403.0,0.0
4729,9.236328125,147,-328.0,0.0
4730,9.23828125,147,-286.0,0.0
4731,9.240234375,147,-258.0,0.0
4732,9.2421875,147,-201.0,0.0
4733,9.244140625,147,-153.0,0.0
4734,9.24609375,147,-161.0,0.0
4735,9.248046875,147,-179.0,0.0
4736,9.25,148,-150.0,0.0
4737,9.251953125,148,-99.0,0.0
4738,9.25390625,148,-40.0,0.0
4739,9.255859375,148,8.0,0.0
4740,9.2578125,148,37.0,0.0
4741,9.259765625,148,35.0,0.0
4742,9.26171875,148,55.0,0.0
4743,9.263671875,148,109.0,0.0
4744,9.265625,148,160.0,0.0
4745,9.267578125,148,204.0,0.0
4746,9.26953125,148,240.0,0.0
4747,9.271484375,148,220.0,0.0
4748,9.2734375,148,201.0,0.0
4749,9.275390625,148,240.0,0.0
4750,9.27734375,148,292.0,0.0
4751,9.279296875,148,348.0,0.0
4752,9.28125,148,411.0,0.0
4753,9.283203125,148,476.0,0.0
4754,9.28515625,148,506.0,0.0
4755,9.287109375,148,496.0,0.0
4756,9.2890625,148,481.0,0.0
4757,9.291015625,148,484.0,0.0
4758,9.29296875,148,482.0,0.0
4759,9.294921875,148,453.0,0.0
4760,9.296875,148,457.0,0.0
4761,9.298828125,148,474.0,0.0
4762,9.30078125,148,480.0,0.0
4763,9.302734375,148,501.0,0.0
4764,9.3046875,148,545.0,0.0
4765,9.306640625,148,593.0,0.0
4766,9.30859375,148,625.0,0.0
4767,9.310546875,148,625.0,0.0
4768,9.3125,149,626.0,0.0
4769,9.314453125,149,651.0,0.0
4770,9.31640625,149,619.0,0.0
4771,9.318359375,149,547.0,0.0
4772,9.3203125,149,508.0,0.0
4773,9.322265625,149,524.0,0.0
4774,9.32421875,149,572.0,0.0
4775,9.326171875,149,626.0,0.0
4776,9.328125,149,661.0,0.0
4777,9.330078125,149,649.0,0.0
4778,9.33203125,149,643.0,0.0
4779,9.333984375,149,697.0,0.0
4780,9.3359375,149,760.0,0.0
4781,9.337890625,149,776.0,0.0
4782,9.33984375,149,737.0,0.0
4783,9.341796875,149,707.0,0.0
4784,9.34375,149,661.0,0.0
4785,9.345703125,149,592.0,0.0
4786,9.34765625,149,530.0,0.0
4787,9.349609375,149,497.0,0.0
4788,9.3515625,149,480.0,0.0
4789,9.353515625,149,454.0,0.0
4790,9.35546875,149,393.0,0.0
4791,9.357421875,149,373.0,0.0
4792,9.359375,149,420.0,0.0
4793,9.361328125,149,457.0,0.0
4794,9.36328125,149,473.0,0.0
4795,9.365234375,149,449.0,0.0
4796,9.3671875,149,371.0,0.0
4797,9.369140625,149,332.0,0.0
4798,9.37109375,149,358.0,0.0
4799,9.373046875,149,388.0,0.0
4800,9.375,150,424.0,0.0
4801,9.376953125,150,468.0,0.0
4802,9.37890625,150,504.0,0.0
4803,9.380859375,150,520.0,0.0
4804,9.3828125,150,504.0,0.0
4805,9.384765625,150,514.0,0.0
4806,9.38671875,150,551.0,0.0
4807,9.388671875,150,570.0,0.0
4808,9.390625,150,589.0,0.0
4809,9.392578125,150,616.0,0.0
4810,9.39453125,150,621.0,0.0
4811,9.396484375,150,600.0,0.0
4812,9.3984375,150,572.0,0.0
4813,9.400390625,150,557.0,0.0
4814,9.40234375,150,532.0,0.0
4815,9.404296875,150,513.0,0.0
4816,9.40625,150,499.0,0.0
4817,9.408203125,150,481.0,0.0
4818,9.41015625,150,449.0,0.0
4819,9.412109375,150,422.0,0.0
4820,9.4140625,150,434.0,0.0
4821,9.416015625,150,480.0,0.0
4822,9.41796875,150,532.0,0.0
4823,9.419921875,150,540.0,0.0
4824,9.421875,150,517.0,0.0
4825,9.423828125,150,469.0,0.0
4826,9.42578125,150,413.0,0.0
4827,9.427734375,150,388.0,0.0
4828,9.4296875,150,389.0,0.0
4829,9.431640625,150,395.0,0.0
4830,9.43359375,150,392.0,0.0
4831,9.435546875,150,371.0,0.0
4832,9.4375,151,314.0,0.0
4833,9.439453125,151,262.0,0.0
4834,9.44140625,151,224.0,0.0
4835,9.443359375,151,171.0,0.0
4836,9.4453125,151,105.0,0.0
4837,9.447265625,151,82.0,0.0
4838,9.44921875,151,81.0,0.0
4839,9.451171875,151,60.0,0.0
4840,9.453125,151,70.0,0.0
4841,9.455078125,151,100.0,0.0
4842,9.45703125,151,88.0,0.0
4843,9.458984375,151,89.0,0.0
4844,9.4609375,151,113.0,0.0
4845,9.462890625,151,137.0,0.0
4846,9.46484375,151,168.0,0.0
4847,9.466796875,151,195.0,0.0
4848,9.46875,151,210.0,0.0
4849,9.470703125,151,196.0,0.0
4850,9.47265625,151,167.0,0.0
4851,9.474609375,151,146.0,0.0
4852,9.4765625,151,131.0,0.0
4853,9.478515625,151,128.0,0.0
4854,9.48046875,151,134.0,0.0
4855,9.482421875,151,163.0,0.0
4856,9.484375,151,193.0,0.0
4857,9.486328125,151,169.0,0.0
4858,9.48828125,151,108.0,0.0
4859,9.490234375,151,88.0,0.0
4860,9.4921875,151,131.0,0.0
4861,9.494140625,151,177.0,0.0
4862,9.49609375,151,146.0,0.0
4863,9.498046875,151,71.0,0.0
4864,9.5,152,48.0,0.0
4865,9.501953125,152,67.0,0.0
4866,9.50390625,152,77.0,0.0
4867,9.505859375,152,64.0,0.0
4868,9.5078125,152,53.0,0.0
4869,9.509765625,152,55.0,0.0
4870,9.51171875,152,41.0,0.0
4871,9.513671875,152,1.0,0.0
4872,9.515625,152,-19.0,0.0
4873,9.517578125,152,0.0,0.0
4874,9.51953125,152,17.0,0.0
4875,9.521484375,152,38.0,0.0
4876,9.5234375,152,58.0,0.0
4877,9.525390625,152,54.0,0.0
4878,9.52734375,152,56.0,0.0
4879,9.529296875,152,64.0,0.0
4880,9.53125,152,49.0,0.0
4881,9.533203125,152,16.0,0.0
4882,9.53515625,152,-7.0,0.0
4883,9.537109375,152,-27.0,0.0
4884,9.5390625,152,-40.0,0.0
4885,9.541015625,152,-69.0,0.0
4886,9.54296875,152,-114.0,0.0
4887,9.544921875,152,-107.0,0.0
4888,9.546875,152,-51.0,0.0
4889,9.548828125,152,6.0,0.0
4890,9.55078125,152,22.0,0.0
4891,9.552734375,152,12.0,0.0
4892,9.5546875,152,-12.0,0.0
4893,9.556640625,152,-60.0,0.0
4894,9.55859375,152,-101.0,0.0
4895,9.560546875,152,-108.0,0.0
4896,9.5625,153,-74.0,0.0
4897,9.564453125,153,-54.0,0.0
4898,9.56640625,153,-81.0,0.0
4899,9.568359375,153,-102.0,0.0
4900,9.5703125,153,-78.0,0.0
4901,9.572265625,153,-30.0,0.0
4902,9.57421875,153,-12.0,0.0
4903,9.576171875,153,-10.0,0.0
4904,9.578125,153,-3.0,0.0
4905,9.580078125,153,-22.0,0.0
4906,9.58203125,153,-66.0,0.0
4907,9.583984375,153,-121.0,0.0
4908,9.5859375,153,-167.0,0.0
4909,9.587890625,153,-185.0,0.0
4910,9.58984375,153,-190.0,0.0
4911,9.591796875,153,-206.0,0.0
4912,9.59375,153,-234.0,0.0
4913,9.595703125,153,-276.0,0.0
4914,9.59765625,153,-315.0,0.0
4915,9.599609375,153,-349.0,0.0
4916,9.6015625,153,-379.0,0.0
4917,9.603515625,153,-387.0,0.0
4918,9.60546875,153,-379.0,0.0
4919,9.607421875,153,-401.0,0.0
4920,9.609375,153,-468.0,0.0
4921,9.611328125,153,-517.0,0.0
4922,9.61328125,153,-517.0,0.0
4923,9.615234375,153,-485.0,0.0
4924,9.6171875,153,-444.0,0.0
4925,9.619140625,153,-401.0,0.0
4926,9.62109375,153,-343.0,0.0
4927,9.623046875,153,-292.0,0.0
4928,9.625,154,-248.0,0.0
4929,9.626953125,154,-215.0,0.0
4930,9.62890625,154,-200.0,0.0
4931,9.630859375,154,-201.0,0.0
4932,9.6328125,154,-200.0,0.0
4933,9.634765625,154,-196.0,0.0
4934,9.63671875,154,-202.0,0.0
4935,9.638671875,154,-222.0,0.0
4936,9.640625,154,-230.0,0.0
4937,9.642578125,154,-225.0,0.0
4938,9.64453125,154,-216.0,0.0
4939,9.646484375,154,-231.0,0.0
4940,9.6484375,154,-276.0,0.0
4941,9.650390625,154,-315.0,0.0
4942,9.65234375,154,-285.0,0.0
4943,9.654296875,154,-205.0,0.0
4944,9.65625,154,-133.0,0.0
4945,9.658203125,154,-91.0,0.0
4946,9.66015625,154,-41.0,0.0
4947,9.662109375,154,26.0,0.0
4948,9.6640625,154,86.0,0.0
4949,9.666015625,154,136.0,0.0
4950,9.66796875,154,149.0,0.0
4951,9.669921875,154,121.0,0.0
4952,9.671875,154,80.0,0.0
4953,9.673828125,154,40.0,0.0
4954,9.67578125,154,26.0,0.0
4955,9.677734375,154,49.0,0.0
4956,9.6796875,154,73.0,0.0
4957,9.681640625,154,87.0,0.0
4958,9.68359375,154,107.0,0.0
4959,9.685546875,154,87.0,0.0
4960,9.6875,155,32.0,0.0
4961,9.689453125,155,-4.0,0.0
4962,9.69140625,155,39.0,0.0
4963,9.693359375,155,116.0,0.0
4964,9.6953125,155,128.0,0.0
4965,9.697265625,155,69.0,0.0
4966,9.69921875,155,16.0,0.0
4967,9.701171875,155,10.0,0.0
4968,9.703125,155,17.0,0.0
4969,9.705078125,155,-1.0,0.0
4970,9.70703125,155,-9.0,0.0
4971,9.708984375,155,-14.0,0.0
4972,9.7109375,155,-29.0,0.0
4973,9.712890625,155,-39.0,0.0
4974,9.71484375,155,-51.0,0.0
4975,9.716796875,155,-61.0,0.0
4976,9.71875,155,-72.0,0.0
4977,9.720703125,155,-77.0,0.0
4978,9.72265625,155,-97.0,0.0
4979,9.724609375,155,-116.0,0.0
4980,9.7265625,155,-131.0,0.0
4981,9.728515625,155,-152.0,0.0
4982,9.73046875,155,-168.0,0.0
4983,9.732421875,155,-180.0,0.0
4984,9.734375,155,-195.0,0.0
4985,9.736328125,155,-213.0,0.0
4986,9.73828125,155,-218.0,0.0
4987,9.740234375,155,-212.0,0.0
4988,9.7421875,155,-215.0,0.0
4989,9.744140625,155,-229.0,0.0
4990,9.74609375,155,-213.0,0.0
4991,9.748046875,155,-173.0,0.0
4992,9.75,156,-138.0,0.0
4993,9.751953125,156,-119.0,0.0
4994,9.75390625,156,-114.0,0.0
4995,9.755859375,156,-122.0,0.0
4996,9.7578125,156,-145.0,0.0
4997,9.759765625,156,-166.0,0.0
4998,9.76171875,156,-184.0,0.0
4999,9.763671875,156,-202.0,0.0
5000,9.765625,156,-245.0,0.0
5001,9.767578125,156,-284.0,0.0
5002,9.76953125,156,-278.0,0.0
5003,9.771484375,156,-249.0,0.0
5004,9.7734375,156,-226.0,0.0
5005,9.775390625,156,-202.0,0.0
5006,9.77734375,156,-169.0,0.0
5007,9.779296875,156,-122.0,0.0
5008,9.78125,156,-78.0,0.0
5009,9.783203125,156,-53.0,0.0
5010,9.78515625,156,-38.0,0.0
5011,9.787109375,156,-70.0,0.0
5012,9.7890625,156,-149.0,33553.0
5013,9.791015625,156,-149.0,33554.0
5014,9.79296875,156,-178.0,0.0
5015,9.794921875,156,-156.0,0.0
5016,9.796875,156,-137.0,0.0
5017,9.798828125,156,-119.0,0.0
5018,9.80078125,156,-145.0,0.0
5019,9.802734375,156,-195.0,0.0
5020,9.8046875,156,-215.0,0.0
5021,9.806640625,156,-215.0,0.0
5022,9.80859375,156,-231.0,0.0
5023,9.810546875,156,-254.0,0.0
5024,9.8125,157,-251.0,0.0
5025,9.814453125,157,-211.0,0.0
5026,9.81640625,157,-172.0,0.0
5027,9.818359375,157,-134.0,0.0
5028,9.8203125,157,-54.0,0.0
5029,9.822265625,157,27.0,0.0
5030,9.82421875,157,51.0,0.0
5031,9.826171875,157,22.0,0.0
5032,9.828125,157,-19.0,0.0
5033,9.830078125,157,-59.0,0.0
5034,9.83203125,157,-92.0,0.0
5035,9.833984375,157,-114.0,0.0
5036,9.8359375,157,-133.0,0.0
5037,9.837890625,157,-137.0,0.0
5038,9.83984375,157,-125.0,0.0
5039,9.841796875,157,-117.0,0.0
5040,9.84375,157,-104.0,0.0
5041,9.845703125,157,-97.0,0.0
5042,9.84765625,157,-103.0,0.0
5043,9.849609375,157,-105.0,0.0
5044,9.8515625,157,-113.0,0.0
5045,9.853515625,157,-146.0,0.0
5046,9.85546875,157,-158.0,0.0
5047,9.857421875,157,-124.0,0.0
5048,9.859375,157,-105.0,0.0
5049,9.861328125,157,-104.0,0.0
5050,9.86328125,157,-113.0,0.0
5051,9.865234375,157,-120.0,0.0
5052,9.8671875,157,-114.0,0.0
5053,9.869140625,157,-98.0,0.0
5054,9.87109375,157,-91.0,0.0
5055,9.873046875,157,-115.0,0.0
5056,9.875,158,-133.0,0.0
5057,9.876953125,158,-136.0,0.0
5058,9.87890625,158,-98.0,0.0
5059,9.880859375,158,-52.0,0.0
5060,9.8828125,158,-53.0,0.0
5061,9.884765625,158,-77.0,0.0
5062,9.88671875,158,-73.0,0.0
5063,9.888671875,158,-51.0,0.0
5064,9.890625,158,-66.0,0.0
5065,9.892578125,158,-141.0,0.0
5066,9.89453125,158,-202.0,0.0
5067,9.896484375,158,-200.0,0.0
5068,9.8984375,158,-142.0,0.0
5069,9.900390625,158,-86.0,0.0
5070,9.90234375,158,-75.0,0.0
5071,9.904296875,158,-52.0,0.0
5072,9.90625,158,-19.0,0.0
5073,9.908203125,158,-3.0,0.0
5074,9.91015625,158,9.0,0.0
5075,9.912109375,158,28.0,0.0
5076,9.9140625,158,28.0,0.0
5077,9.916015625,158,-10.0,0.0
5078,9.91796875,158,-61.0,0.0
5079,9.919921875,158,-72.0,0.0
5080,9.921875,158,-43.0,0.0
5081,9.923828125,158,1.0,0.0
5082,9.92578125,158,34.0,0.0
5083,9.927734375,158,22.0,0.0
5084,9.9296875,158,4.0,0.0
5085,9.931640625,158,-1.0,0.0
5086,9.93359375,158,34.0,0.0
5087,9.935546875,158,99.0,0.0
5088,9.9375,159,149.0,0.0
5089,9.939453125,159,149.0,0.0
5090,9.94140625,159,118.0,0.0
5091,9.943359375,159,120.0,0.0
5092,9.9453125,159,152.0,0.0
5093,9.947265625,159,157.0,0.0
5094,9.94921875,159,146.0,0.0
5095,9.951171875,159,116.0,0.0
5096,9.953125,159,74.0,0.0
5097,9.955078125,159,34.0,0.0
5098,9.95703125,159,-5.0,0.0
5099,9.958984375,159,-34.0,0.0
5100,9.9609375,159,-37.0,0.0
5101,9.962890625,159,-7.0,0.0
5102,9.96484375,159,44.0,0.0
5103,9.966796875,159,75.0,0.0
5104,9.96875,159,90.0,0.0
5105,9.970703125,159,104.0,0.0
5106,9.97265625,159,116.0,0.0
5107,9.974609375,159,109.0,0.0
5108,9.9765625,159,108.0,0.0
5109,9.978515625,159,104.0,0.0
5110,9.98046875,159,86.0,0.0
5111,9.982421875,159,64.0,0.0
5112,9.984375,159,36.0,0.0
5113,9.986328125,159,26.0,0.0
5114,9.98828125,159,39.0,0.0
5115,9.990234375,159,48.0,0.0
5116,9.9921875,159,38.0,0.0
5117,9.994140625,159,25.0,0.0
5118,9.99609375,159,2.0,0.0
5119,9.998046875,159,-39.0,0.0
5120,10.0,160,-87.0,0.0
5121,10.001953125,160,-98.0,0.0
5122,10.00390625,160,-65.0,0.0
5123,10.005859375,160,-11.0,0.0
5124,10.0078125,160,18.0,0.0
5125,10.009765625,160,40.0,0.0
5126,10.01171875,160,70.0,0.0
5127,10.013671875,160,102.0,0.0
5128,10.015625,160,116.0,0.0
5129,10.017578125,160,113.0,0.0
5130,10.01953125,160,112.0,0.0
5131,10.021484375,160,113.0,0.0
5132,10.0234375,160,112.0,0.0
5133,10.025390625,160,109.0,0.0
5134,10.02734375,160,150.0,0.0
