,Time:512Hz,Epoch,Electrode,Event Id
1024,2.0,32,88.0,0
1025,2.001953125,32,68.0,33552
1026,2.00390625,32,51.0,0
1027,2.005859375,32,48.0,0
1028,2.0078125,32,53.0,0
1029,2.009765625,32,52.0,0
1030,2.01171875,32,35.0,0
1031,2.013671875,32,5.0,0
1032,2.015625,32,-21.0,0
1033,2.017578125,32,-17.0,0
1034,2.01953125,32,-6.0,0
1035,2.021484375,32,8.0,0
1036,2.0234375,32,21.0,0
1037,2.025390625,32,35.0,0
1038,2.02734375,32,58.0,0
1039,2.029296875,32,56.0,0
1040,2.03125,32,37.0,0
1041,2.033203125,32,41.0,0
1042,2.03515625,32,64.0,0
1043,2.037109375,32,75.0,0
1044,2.0390625,32,87.0,0
1045,2.041015625,32,101.0,0
1046,2.04296875,32,76.0,0
1047,2.044921875,32,41.0,0
1048,2.046875,32,22.0,0
1049,2.048828125,32,6.0,0
1050,2.05078125,32,2.0,0
1051,2.052734375,32,9.0,0
1052,2.0546875,32,13.0,0
1053,2.056640625,32,4.0,0
1054,2.05859375,32,-19.0,0
1055,2.060546875,32,-14.0,0
1056,2.0625,33,1.0,0
1057,2.064453125,33,6.0,0
1058,2.06640625,33,10.0,0
1059,2.068359375,33,38.0,0
1060,2.0703125,33,53.0,0
1061,2.072265625,33,50.0,0
1062,2.07421875,33,54.0,0
1063,2.076171875,33,72.0,0
1064,2.078125,33,87.0,0
1065,2.080078125,33,85.0,0
1066,2.08203125,33,75.0,0
1067,2.083984375,33,59.0,0
1068,2.0859375,33,67.0,0
1069,2.087890625,33,107.0,0
1070,2.08984375,33,138.0,0
1071,2.091796875,33,132.0,0
1072,2.09375,33,107.0,0
1073,2.095703125,33,98.0,0
1074,2.09765625,33,102.0,0
1075,2.099609375,33,109.0,0
1076,2.1015625,33,102.0,0
1077,2.103515625,33,100.0,0
1078,2.10546875,33,106.0,0
1079,2.107421875,33,96.0,0
1080,2.109375,33,84.0,0
1081,2.111328125,33,108.0,0
1082,2.11328125,33,128.0,0
1083,2.115234375,33,117.0,0
1084,2.1171875,33,107.0,0
1085,2.119140625,33,92.0,0
1086,2.12109375,33,74.0,0
1087,2.123046875,33,50.0,0
1088,2.125,34,25.0,0
1089,2.126953125,34,4.0,0
1090,2.12890625,34,-7.0,0
1091,2.130859375,34,-7.0,0
1092,2.1328125,34,0.0,0
1093,2.134765625,34,-3.0,0
1094,2.13671875,34,6.0,0
1095,2.138671875,34,1.0,0
1096,2.140625,34,-20.0,0
1097,2.142578125,34,-40.0,0
1098,2.14453125,34,-55.0,0
1099,2.146484375,34,-43.0,0
1100,2.1484375,34,-36.0,0
1101,2.150390625,34,-38.0,0
1102,2.15234375,34,-18.0,0
1103,2.154296875,34,23.0,0
1104,2.15625,34,27.0,0
1105,2.158203125,34,10.0,0
1106,2.16015625,34,3.0,0
1107,2.162109375,34,11.0,0
1108,2.1640625,34,-5.0,0
1109,2.166015625,34,-40.0,0
1110,2.16796875,34,-61.0,0
1111,2.169921875,34,-85.0,0
1112,2.171875,34,-119.0,0
1113,2.173828125,34,-129.0,0
1114,2.17578125,34,-86.0,0
1115,2.177734375,34,-21.0,0
1116,2.1796875,34,26.0,0
1117,2.181640625,34,25.0,0
1118,2.18359375,34,-26.0,0
1119,2.185546875,34,-58.0,0
1120,2.1875,35,-53.0,0
1121,2.189453125,35,-33.0,0
1122,2.19140625,35,-7.0,0
1123,2.193359375,35,-2.0,0
1124,2.1953125,35,-35.0,0
1125,2.197265625,35,-65.0,0
1126,2.19921875,35,-74.0,0
1127,2.201171875,35,-70.0,0
1128,2.203125,35,-51.0,0
1129,2.205078125,35,-33.0,0
1130,2.20703125,35,-18.0,0
1131,2.208984375,35,-5.0,0
1132,2.2109375,35,-22.0,0
1133,2.212890625,35,-56.0,0
1134,2.21484375,35,-82.0,0
1135,2.216796875,35,-84.0,0
1136,2.21875,35,-67.0,0
1137,2.220703125,35,-54.0,0
1138,2.22265625,35,-61.0,0
1139,2.224609375,35,-85.0,0
1140,2.2265625,35,-88.0,0
1141,2.228515625,35,-83.0,0
1142,2.23046875,35,-102.0,0
1143,2.232421875,35,-134.0,0
1144,2.234375,35,-132.0,0
1145,2.236328125,35,-92.0,0
1146,2.23828125,35,-73.0,0
1147,2.240234375,35,-71.0,0
1148,2.2421875,35,-42.0,0
1149,2.244140625,35,11.0,0
1150,2.24609375,35,108.0,0
1151,2.248046875,35,212.0,0
1152,2.25,36,202.0,0
1153,2.251953125,36,104.0,0
1154,2.25390625,36,66.0,0
1155,2.255859375,36,56.0,0
1156,2.2578125,36,35.0,0
1157,2.259765625,36,-2.0,0
1158,2.26171875,36,-35.0,0
1159,2.263671875,36,-35.0,0
1160,2.265625,36,1.0,0
1161,2.267578125,36,60.0,0
1162,2.26953125,36,176.0,0
1163,2.271484375,36,220.0,0
1164,2.2734375,36,129.0,0
1165,2.275390625,36,51.0,0
1166,2.27734375,36,68.0,0
1167,2.279296875,36,68.0,0
1168,2.28125,36,3.0,0
1169,2.283203125,36,-24.0,0
1170,2.28515625,36,-6.0,0
1171,2.287109375,36,25.0,0
1172,2.2890625,36,27.0,0
1173,2.291015625,36,41.0,0
1174,2.29296875,36,83.0,0
1175,2.294921875,36,67.0,0
1176,2.296875,36,28.0,0
1177,2.298828125,36,16.0,0
1178,2.30078125,36,28.0,0
1179,2.302734375,36,48.0,0
1180,2.3046875,36,53.0,0
1181,2.306640625,36,50.0,0
1182,2.30859375,36,68.0,0
1183,2.310546875,36,117.0,0
1184,2.3125,37,150.0,0
1185,2.314453125,37,161.0,0
1186,2.31640625,37,161.0,0
1187,2.318359375,37,136.0,0
1188,2.3203125,37,116.0,0
1189,2.322265625,37,100.0,0
1190,2.32421875,37,91.0,0
1191,2.326171875,37,103.0,0
1192,2.328125,37,117.0,0
1193,2.330078125,37,125.0,0
1194,2.33203125,37,120.0,0
1195,2.333984375,37,112.0,0
1196,2.3359375,37,106.0,0
1197,2.337890625,37,112.0,0
1198,2.33984375,37,102.0,0
1199,2.341796875,37,82.0,0
1200,2.34375,37,67.0,0
1201,2.345703125,37,64.0,0
1202,2.34765625,37,72.0,0
1203,2.349609375,37,90.0,0
1204,2.3515625,37,131.0,0
1205,2.353515625,37,167.0,0
1206,2.35546875,37,168.0,0
1207,2.357421875,37,163.0,0
1208,2.359375,37,153.0,0
1209,2.361328125,37,144.0,0
1210,2.36328125,37,128.0,0
1211,2.365234375,37,108.0,0
1212,2.3671875,37,96.0,0
1213,2.369140625,37,97.0,0
1214,2.37109375,37,82.0,0
1215,2.373046875,37,52.0,0
1216,2.375,38,60.0,33552
1217,2.376953125,38,58.0,33552
1218,2.37890625,38,35.0,0
1219,2.380859375,38,6.0,0
1220,2.3828125,38,-2.0,0
1221,2.384765625,38,24.0,0
1222,2.38671875,38,44.0,0
1223,2.388671875,38,4.0,0
1224,2.390625,38,-25.0,0
1225,2.392578125,38,10.0,0
1226,2.39453125,38,50.0,0
1227,2.396484375,38,40.0,0
1228,2.3984375,38,29.0,0
1229,2.400390625,38,33.0,0
1230,2.40234375,38,24.0,0
1231,2.404296875,38,11.0,0
1232,2.40625,38,7.0,0
1233,2.408203125,38,1.0,0
1234,2.41015625,38,-6.0,0
1235,2.412109375,38,-5.0,0
1236,2.4140625,38,4.0,0
1237,2.416015625,38,23.0,0
1238,2.41796875,38,34.0,0
1239,2.419921875,38,24.0,0
1240,2.421875,38,18.0,0
1241,2.423828125,38,24.0,0
1242,2.42578125,38,44.0,0
1243,2.427734375,38,58.0,0
1244,2.4296875,38,60.0,0
1245,2.431640625,38,33.0,0
1246,2.43359375,38,8.0,0
1247,2.435546875,38,10.0,0
1248,2.4375,39,25.0,0
1249,2.439453125,39,49.0,0
1250,2.44140625,39,64.0,0
1251,2.443359375,39,61.0,0
1252,2.4453125,39,66.0,0
1253,2.447265625,39,72.0,0
1254,2.44921875,39,83.0,0
1255,2.451171875,39,81.0,0
1256,2.453125,39,83.0,0
1257,2.455078125,39,90.0,0
1258,2.45703125,39,74.0,0
1259,2.458984375,39,54.0,0
1260,2.4609375,39,53.0,0
1261,2.462890625,39,54.0,0
1262,2.46484375,39,50.0,0
1263,2.466796875,39,45.0,0
1264,2.46875,39,45.0,0
1265,2.470703125,39,42.0,0
1266,2.47265625,39,57.0,0
1267,2.474609375,39,84.0,0
1268,2.4765625,39,100.0,0
1269,2.478515625,39,102.0,0
1270,2.48046875,39,96.0,0
1271,2.482421875,39,83.0,0
1272,2.484375,39,76.0,0
1273,2.486328125,39,76.0,0
1274,2.48828125,39,55.0,0
1275,2.490234375,39,29.0,0
1276,2.4921875,39,48.0,0
1277,2.494140625,39,115.0,0
1278,2.49609375,39,163.0,0
1279,2.498046875,39,153.0,0
1280,2.5,40,122.0,0
1281,2.501953125,40,99.0,0
1282,2.50390625,40,107.0,0
1283,2.505859375,40,145.0,0
1284,2.5078125,40,166.0,0
1285,2.509765625,40,137.0,0
1286,2.51171875,40,85.0,0
1287,2.513671875,40,54.0,0
1288,2.515625,40,68.0,0
1289,2.517578125,40,101.0,0
1290,2.51953125,40,108.0,0
1291,2.521484375,40,98.0,0
1292,2.5234375,40,76.0,0
1293,2.525390625,40,45.0,0
1294,2.52734375,40,36.0,0
1295,2.529296875,40,48.0,0
1296,2.53125,40,60.0,0
1297,2.533203125,40,73.0,0
1298,2.53515625,40,66.0,0
1299,2.537109375,40,25.0,0
1300,2.5390625,40,-8.0,0
1301,2.541015625,40,-19.0,0
1302,2.54296875,40,-25.0,0
1303,2.544921875,40,-25.0,0
1304,2.546875,40,-22.0,0
1305,2.548828125,40,-38.0,0
1306,2.55078125,40,-59.0,0
1307,2.552734375,40,-52.0,0
1308,2.5546875,40,-46.0,0
1309,2.556640625,40,-73.0,0
1310,2.55859375,40,-114.0,0
1311,2.560546875,40,-140.0,0
1312,2.5625,41,-141.0,0
1313,2.564453125,41,-135.0,0
1314,2.56640625,41,-130.0,0
1315,2.568359375,41,-117.0,0
1316,2.5703125,41,-77.0,0
1317,2.572265625,41,-45.0,0
1318,2.57421875,41,-54.0,0
1319,2.576171875,41,-69.0,0
1320,2.578125,41,-55.0,0
1321,2.580078125,41,-28.0,0
1322,2.58203125,41,-33.0,0
1323,2.583984375,41,-59.0,0
1324,2.5859375,41,-72.0,0
1325,2.587890625,41,-59.0,0
1326,2.58984375,41,-30.0,0
1327,2.591796875,41,3.0,0
1328,2.59375,41,23.0,0
1329,2.595703125,41,27.0,0
1330,2.59765625,41,9.0,0
1331,2.599609375,41,10.0,0
1332,2.6015625,41,35.0,0
1333,2.603515625,41,53.0,0
1334,2.60546875,41,55.0,0
1335,2.607421875,41,32.0,0
1336,2.609375,41,-9.0,0
1337,2.611328125,41,-11.0,0
1338,2.61328125,41,42.0,0
1339,2.615234375,41,68.0,0
1340,2.6171875,41,44.0,0
1341,2.619140625,41,34.0,0
1342,2.62109375,41,64.0,0
1343,2.623046875,41,106.0,0
1344,2.625,42,156.0,0
1345,2.626953125,42,198.0,0
1346,2.62890625,42,196.0,0
1347,2.630859375,42,172.0,0
1348,2.6328125,42,163.0,0
1349,2.634765625,42,164.0,0
1350,2.63671875,42,179.0,0
1351,2.638671875,42,177.0,0
1352,2.640625,42,167.0,0
1353,2.642578125,42,188.0,0
1354,2.64453125,42,220.0,0
1355,2.646484375,42,248.0,0
1356,2.6484375,42,248.0,0
1357,2.650390625,42,244.0,0
1358,2.65234375,42,261.0,0
1359,2.654296875,42,272.0,0
1360,2.65625,42,278.0,0
1361,2.658203125,42,281.0,0
1362,2.66015625,42,278.0,0
1363,2.662109375,42,275.0,0
1364,2.6640625,42,274.0,0
1365,2.666015625,42,281.0,0
1366,2.66796875,42,292.0,0
1367,2.669921875,42,290.0,0
1368,2.671875,42,290.0,0
1369,2.673828125,42,284.0,0
1370,2.67578125,42,257.0,0
1371,2.677734375,42,220.0,0
1372,2.6796875,42,201.0,0
1373,2.681640625,42,187.0,0
1374,2.68359375,42,160.0,0
1375,2.685546875,42,129.0,0
1376,2.6875,43,130.0,0
1377,2.689453125,43,138.0,0
1378,2.69140625,43,136.0,0
1379,2.693359375,43,122.0,0
1380,2.6953125,43,117.0,0
1381,2.697265625,43,122.0,0
1382,2.69921875,43,139.0,0
1383,2.701171875,43,140.0,0
1384,2.703125,43,103.0,0
1385,2.705078125,43,64.0,0
1386,2.70703125,43,54.0,0
1387,2.708984375,43,43.0,0
1388,2.7109375,43,28.0,0
1389,2.712890625,43,32.0,0
1390,2.71484375,43,24.0,0
1391,2.716796875,43,4.0,0
1392,2.71875,43,4.0,0
1393,2.720703125,43,28.0,0
1394,2.72265625,43,53.0,0
1395,2.724609375,43,50.0,0
1396,2.7265625,43,10.0,0
1397,2.728515625,43,-27.0,0
1398,2.73046875,43,-18.0,0
1399,2.732421875,43,23.0,0
1400,2.734375,43,64.0,0
1401,2.736328125,43,72.0,0
1402,2.73828125,43,57.0,0
1403,2.740234375,43,50.0,0
1404,2.7421875,43,57.0,0
1405,2.744140625,43,50.0,0
1406,2.74609375,43,23.0,0
1407,2.748046875,43,17.0,0
1408,2.75,44,26.0,0
1409,2.751953125,44,13.0,0
1410,2.75390625,44,-9.0,0
1411,2.755859375,44,-20.0,0
1412,2.7578125,44,-1.0,0
1413,2.759765625,44,24.0,0
1414,2.76171875,44,34.0,0
1415,2.763671875,44,26.0,0
1416,2.765625,44,18.0,0
1417,2.767578125,44,-1.0,0
1418,2.76953125,44,-19.0,0
1419,2.771484375,44,-13.0,0
1420,2.7734375,44,2.0,0
1421,2.775390625,44,25.0,0
1422,2.77734375,44,29.0,0
1423,2.779296875,44,19.0,0
1424,2.78125,44,22.0,0
1425,2.783203125,44,33.0,0
1426,2.78515625,44,29.0,0
1427,2.787109375,44,25.0,0
1428,2.7890625,44,26.0,0
1429,2.791015625,44,38.0,0
1430,2.79296875,44,43.0,0
1431,2.794921875,44,44.0,0
1432,2.796875,44,44.0,0
1433,2.798828125,44,52.0,0
1434,2.80078125,44,73.0,0
1435,2.802734375,44,85.0,0
1436,2.8046875,44,66.0,0
1437,2.806640625,44,38.0,0
1438,2.80859375,44,28.0,0
1439,2.810546875,44,43.0,0
1440,2.8125,45,66.0,0
1441,2.814453125,45,68.0,0
1442,2.81640625,45,52.0,0
1443,2.818359375,45,54.0,0
1444,2.8203125,45,68.0,0
1445,2.822265625,45,66.0,0
1446,2.82421875,45,38.0,0
1447,2.826171875,45,-1.0,0
1448,2.828125,45,1.0,0
1449,2.830078125,45,55.0,0
1450,2.83203125,45,99.0,0
1451,2.833984375,45,96.0,0
1452,2.8359375,45,65.0,0
1453,2.837890625,45,33.0,0
1454,2.83984375,45,32.0,0
1455,2.841796875,45,73.0,0
1456,2.84375,45,122.0,0
1457,2.845703125,45,146.0,0
1458,2.84765625,45,115.0,0
1459,2.849609375,45,75.0,0
1460,2.8515625,45,85.0,0
1461,2.853515625,45,119.0,0
1462,2.85546875,45,116.0,0
1463,2.857421875,45,77.0,0
1464,2.859375,45,41.0,0
1465,2.861328125,45,29.0,0
1466,2.86328125,45,35.0,0
1467,2.865234375,45,19.0,0
1468,2.8671875,45,-9.0,0
1469,2.869140625,45,-18.0,0
1470,2.87109375,45,9.0,0
1471,2.873046875,45,35.0,0
1472,2.875,46,26.0,0
1473,2.876953125,46,16.0,0
1474,2.87890625,46,24.0,0
1475,2.880859375,46,12.0,0
1476,2.8828125,46,-19.0,0
1477,2.884765625,46,-34.0,0
1478,2.88671875,46,-36.0,0
1479,2.888671875,46,-36.0,0
1480,2.890625,46,-38.0,0
1481,2.892578125,46,-57.0,0
1482,2.89453125,46,-76.0,0
1483,2.896484375,46,-84.0,0
1484,2.8984375,46,-78.0,0
1485,2.900390625,46,-78.0,0
1486,2.90234375,46,-94.0,0
1487,2.904296875,46,-102.0,0
1488,2.90625,46,-76.0,0
1489,2.908203125,46,-40.0,0
1490,2.91015625,46,-28.0,0
1491,2.912109375,46,-24.0,0
1492,2.9140625,46,-29.0,0
1493,2.916015625,46,-67.0,0
1494,2.91796875,46,-99.0,0
1495,2.919921875,46,-98.0,0
1496,2.921875,46,-83.0,0
1497,2.923828125,46,-81.0,0
1498,2.92578125,46,-74.0,0
1499,2.927734375,46,-52.0,0
1500,2.9296875,46,-3.0,0
1501,2.931640625,46,26.0,0
1502,2.93359375,46,34.0,0
1503,2.935546875,46,39.0,0
1504,2.9375,47,34.0,0
1505,2.939453125,47,-8.0,0
1506,2.94140625,47,-41.0,0
1507,2.943359375,47,-41.0,0
1508,2.9453125,47,-33.0,0
1509,2.947265625,47,-38.0,0
1510,2.94921875,47,-61.0,0
1511,2.951171875,47,-58.0,0
1512,2.953125,47,-45.0,0
1513,2.955078125,47,-51.0,0
1514,2.95703125,47,-39.0,0
1515,2.958984375,47,-20.0,0
1516,2.9609375,47,-29.0,0
1517,2.962890625,47,-43.0,0
1518,2.96484375,47,-45.0,0
1519,2.966796875,47,-43.0,0
1520,2.96875,47,-29.0,0
1521,2.970703125,47,-7.0,0
1522,2.97265625,47,-17.0,0
1523,2.974609375,47,-39.0,0
1524,2.9765625,47,-76.0,0
1525,2.978515625,47,-98.0,0
1526,2.98046875,47,-38.0,0
1527,2.982421875,47,41.0,0
1528,2.984375,47,34.0,0
1529,2.986328125,47,-9.0,0
1530,2.98828125,47,-13.0,0
1531,2.990234375,47,4.0,0
1532,2.9921875,47,33.0,0
1533,2.994140625,47,35.0,0
1534,2.99609375,47,22.0,0
1535,2.998046875,47,5.0,0
1536,3.0,48,-21.0,0
1537,3.001953125,48,-38.0,0
1538,3.00390625,48,-11.0,0
1539,3.005859375,48,20.0,0
1540,3.0078125,48,21.0,0
1541,3.009765625,48,-14.0,0
1542,3.01171875,48,-17.0,0
1543,3.013671875,48,-25.0,0
1544,3.015625,48,-42.0,0
1545,3.017578125,48,1.0,0
1546,3.01953125,48,26.0,0
1547,3.021484375,48,-17.0,0
1548,3.0234375,48,-26.0,0
1549,3.025390625,48,-14.0,0
1550,3.02734375,48,-44.0,0
1551,3.029296875,48,-81.0,0
1552,3.03125,48,-91.0,0
1553,3.033203125,48,-114.0,0
1554,3.03515625,48,-123.0,0
1555,3.037109375,48,-130.0,0
1556,3.0390625,48,-125.0,0
1557,3.041015625,48,-105.0,0
1558,3.04296875,48,-58.0,0
1559,3.044921875,48,-30.0,0
1560,3.046875,48,-66.0,0
1561,3.048828125,48,-99.0,0
1562,3.05078125,48,-65.0,0
1563,3.052734375,48,-21.0,0
1564,3.0546875,48,-42.0,0
1565,3.056640625,48,-113.0,0
1566,3.05859375,48,-162.0,0
1567,3.060546875,48,-152.0,0
1568,3.0625,49,-68.0,0
1569,3.064453125,49,-9.0,0
1570,3.06640625,49,-24.0,0
1571,3.068359375,49,-70.0,0
1572,3.0703125,49,-71.0,0
1573,3.072265625,49,-46.0,0
1574,3.07421875,49,-11.0,0
1575,3.076171875,49,-2.0,0
1576,3.078125,49,-29.0,0
1577,3.080078125,49,-30.0,0
1578,3.08203125,49,-9.0,0
1579,3.083984375,49,10.0,0
1580,3.0859375,49,37.0,0
1581,3.087890625,49,68.0,0
1582,3.08984375,49,116.0,0
1583,3.091796875,49,176.0,0
1584,3.09375,49,177.0,0
1585,3.095703125,49,144.0,0
1586,3.09765625,49,115.0,0
1587,3.099609375,49,91.0,0
1588,3.1015625,49,71.0,0
1589,3.103515625,49,53.0,0
1590,3.10546875,49,58.0,0
1591,3.107421875,49,74.0,0
1592,3.109375,49,81.0,0
1593,3.111328125,49,84.0,0
1594,3.11328125,49,96.0,0
1595,3.115234375,49,98.0,0
1596,3.1171875,49,49.0,0
1597,3.119140625,49,48.0,0
1598,3.12109375,49,81.0,0
1599,3.123046875,49,96.0,0
1600,3.125,50,80.0,0
1601,3.126953125,50,84.0,0
1602,3.12890625,50,123.0,0
1603,3.130859375,50,176.0,0
1604,3.1328125,50,214.0,0
1605,3.134765625,50,226.0,0
1606,3.13671875,50,209.0,0
1607,3.138671875,50,178.0,0
1608,3.140625,50,122.0,0
1609,3.142578125,50,101.0,0
1610,3.14453125,50,53.0,0
1611,3.146484375,50,23.0,0
1612,3.1484375,50,27.0,0
1613,3.150390625,50,25.0,0
1614,3.15234375,50,1.0,0
1615,3.154296875,50,8.0,0
1616,3.15625,50,49.0,0
1617,3.158203125,50,71.0,0
1618,3.16015625,50,42.0,0
1619,3.162109375,50,24.0,0
1620,3.1640625,50,22.0,0
1621,3.166015625,50,18.0,0
1622,3.16796875,50,37.0,0
1623,3.169921875,50,21.0,0
1624,3.171875,50,-11.0,0
1625,3.173828125,50,-5.0,0
1626,3.17578125,50,23.0,0
1627,3.177734375,50,34.0,0
1628,3.1796875,50,40.0,0
1629,3.181640625,50,36.0,0
1630,3.18359375,50,16.0,0
1631,3.185546875,50,2.0,0
1632,3.1875,51,0.0,0
1633,3.189453125,51,8.0,0
1634,3.19140625,51,16.0,0
1635,3.193359375,51,22.0,0
1636,3.1953125,51,32.0,0
1637,3.197265625,51,45.0,0
1638,3.19921875,51,61.0,0
1639,3.201171875,51,57.0,0
1640,3.203125,51,37.0,0
1641,3.205078125,51,49.0,0
1642,3.20703125,51,88.0,0
1643,3.208984375,51,118.0,0
1644,3.2109375,51,138.0,0
1645,3.212890625,51,145.0,0
1646,3.21484375,51,132.0,0
1647,3.216796875,51,134.0,0
1648,3.21875,51,162.0,0
1649,3.220703125,51,186.0,0
1650,3.22265625,51,181.0,0
1651,3.224609375,51,162.0,0
1652,3.2265625,51,146.0,0
1653,3.228515625,51,131.0,0
1654,3.23046875,51,106.0,0
1655,3.232421875,51,75.0,0
1656,3.234375,51,74.0,0
1657,3.236328125,51,106.0,0
1658,3.23828125,51,109.0,0
1659,3.240234375,51,91.0,0
1660,3.2421875,51,68.0,0
1661,3.244140625,51,48.0,0
1662,3.24609375,51,43.0,0
1663,3.248046875,51,66.0,0
1664,3.25,52,76.0,0
1665,3.251953125,52,72.0,0
1666,3.25390625,52,71.0,0
1667,3.255859375,52,57.0,0
1668,3.2578125,52,27.0,0
1669,3.259765625,52,-1.0,0
1670,3.26171875,52,-5.0,0
1671,3.263671875,52,3.0,0
1672,3.265625,52,16.0,0
1673,3.267578125,52,20.0,0
1674,3.26953125,52,16.0,0
1675,3.271484375,52,13.0,0
1676,3.2734375,52,9.0,0
1677,3.275390625,52,9.0,0
1678,3.27734375,52,8.0,0
1679,3.279296875,52,20.0,0
1680,3.28125,52,26.0,0
1681,3.283203125,52,23.0,0
1682,3.28515625,52,24.0,0
1683,3.287109375,52,0.0,0
1684,3.2890625,52,-39.0,0
1685,3.291015625,52,-30.0,0
1686,3.29296875,52,-2.0,0
1687,3.294921875,52,-1.0,0
1688,3.296875,52,-19.0,0
1689,3.298828125,52,-18.0,0
1690,3.30078125,52,11.0,0
1691,3.302734375,52,42.0,0
1692,3.3046875,52,50.0,0
1693,3.306640625,52,32.0,0
1694,3.30859375,52,25.0,0
1695,3.310546875,52,42.0,0
1696,3.3125,53,52.0,0
1697,3.314453125,53,44.0,0
1698,3.31640625,53,32.0,0
1699,3.318359375,53,32.0,0
1700,3.3203125,53,34.0,0
1701,3.322265625,53,21.0,0
1702,3.32421875,53,17.0,0
1703,3.326171875,53,2.0,0
1704,3.328125,53,-24.0,0
1705,3.330078125,53,-30.0,0
1706,3.33203125,53,-18.0,0
1707,3.333984375,53,6.0,0
1708,3.3359375,53,24.0,0
1709,3.337890625,53,41.0,0
1710,3.33984375,53,42.0,0
1711,3.341796875,53,40.0,0
1712,3.34375,53,56.0,0
1713,3.345703125,53,66.0,0
1714,3.34765625,53,58.0,0
1715,3.349609375,53,36.0,0
1716,3.3515625,53,20.0,0
1717,3.353515625,53,19.0,0
1718,3.35546875,53,41.0,0
1719,3.357421875,53,86.0,0
1720,3.359375,53,97.0,0
1721,3.361328125,53,103.0,0
1722,3.36328125,53,113.0,0
1723,3.365234375,53,92.0,0
1724,3.3671875,53,67.0,0
1725,3.369140625,53,52.0,0
1726,3.37109375,53,69.0,0
1727,3.373046875,53,88.0,0
1728,3.375,54,82.0,0
1729,3.376953125,54,71.0,0
1730,3.37890625,54,83.0,0
1731,3.380859375,54,102.0,0
1732,3.3828125,54,106.0,0
1733,3.384765625,54,92.0,0
1734,3.38671875,54,66.0,0
1735,3.388671875,54,40.0,0
1736,3.390625,54,27.0,0
1737,3.392578125,54,34.0,0
1738,3.39453125,54,43.0,0
1739,3.396484375,54,51.0,0
1740,3.3984375,54,66.0,0
1741,3.400390625,54,73.0,0
1742,3.40234375,54,52.0,0
1743,3.404296875,54,20.0,0
1744,3.40625,54,-9.0,0
1745,3.408203125,54,-25.0,0
1746,3.41015625,54,-30.0,0
1747,3.412109375,54,-6.0,0
1748,3.4140625,54,40.0,0
1749,3.416015625,54,73.0,0
1750,3.41796875,54,83.0,0
1751,3.419921875,54,92.0,0
1752,3.421875,54,120.0,0
1753,3.423828125,54,123.0,0
1754,3.42578125,54,112.0,0
1755,3.427734375,54,89.0,0
1756,3.4296875,54,58.0,0
1757,3.431640625,54,33.0,0
1758,3.43359375,54,43.0,0
1759,3.435546875,54,85.0,0
1760,3.4375,55,107.0,0
1761,3.439453125,55,102.0,0
1762,3.44140625,55,74.0,0
1763,3.443359375,55,45.0,0
1764,3.4453125,55,40.0,0
1765,3.447265625,55,40.0,0
1766,3.44921875,55,43.0,0
1767,3.451171875,55,45.0,0
1768,3.453125,55,24.0,0
1769,3.455078125,55,-11.0,0
1770,3.45703125,55,-27.0,0
1771,3.458984375,55,-20.0,0
1772,3.4609375,55,-5.0,0
1773,3.462890625,55,-10.0,0
1774,3.46484375,55,-20.0,0
1775,3.466796875,55,-12.0,0
1776,3.46875,55,2.0,0
1777,3.470703125,55,11.0,0
1778,3.47265625,55,32.0,0
1779,3.474609375,55,38.0,0
1780,3.4765625,55,5.0,0
1781,3.478515625,55,-34.0,0
1782,3.48046875,55,-18.0,0
1783,3.482421875,55,21.0,0
1784,3.484375,55,23.0,0
1785,3.486328125,55,12.0,0
1786,3.48828125,55,17.0,0
1787,3.490234375,55,8.0,0
1788,3.4921875,55,8.0,0
1789,3.494140625,55,44.0,0
1790,3.49609375,55,67.0,0
1791,3.498046875,55,42.0,0
1792,3.5,56,-12.0,0
1793,3.501953125,56,-61.0,0
1794,3.50390625,56,-27.0,0
1795,3.505859375,56,51.0,0
1796,3.5078125,56,103.0,0
1797,3.509765625,56,123.0,0
1798,3.51171875,56,148.0,0
1799,3.513671875,56,153.0,0
1800,3.515625,56,149.0,0
1801,3.517578125,56,150.0,0
1802,3.51953125,56,149.0,0
1803,3.521484375,56,147.0,0
1804,3.5234375,56,148.0,0
1805,3.525390625,56,146.0,0
1806,3.52734375,56,164.0,0
1807,3.529296875,56,197.0,0
1808,3.53125,56,225.0,0
1809,3.533203125,56,229.0,0
1810,3.53515625,56,208.0,0
1811,3.537109375,56,179.0,0
1812,3.5390625,56,182.0,0
1813,3.541015625,56,218.0,0
1814,3.54296875,56,230.0,0
1815,3.544921875,56,209.0,0
1816,3.546875,56,199.0,0
1817,3.548828125,56,210.0,0
1818,3.55078125,56,209.0,0
1819,3.552734375,56,208.0,0
1820,3.5546875,56,218.0,0
1821,3.556640625,56,237.0,0
1822,3.55859375,56,246.0,0
1823,3.560546875,56,231.0,33553
1824,3.5625,57,231.0,33554:33554
1825,3.564453125,57,225.0,0
1826,3.56640625,57,218.0,0
1827,3.568359375,57,195.0,0
1828,3.5703125,57,154.0,0
1829,3.572265625,57,136.0,0
1830,3.57421875,57,129.0,0
1831,3.576171875,57,102.0,0
1832,3.578125,57,74.0,0
1833,3.580078125,57,82.0,0
1834,3.58203125,57,107.0,0
1835,3.583984375,57,107.0,0
1836,3.5859375,57,96.0,0
1837,3.587890625,57,89.0,0
1838,3.58984375,57,68.0,0
1839,3.591796875,57,27.0,0
1840,3.59375,57,2.0,0
1841,3.595703125,57,-12.0,0
1842,3.59765625,57,-26.0,0
1843,3.599609375,57,-27.0,0
1844,3.6015625,57,-38.0,0
1845,3.603515625,57,-46.0,0
1846,3.60546875,57,-45.0,0
1847,3.607421875,57,-52.0,0
1848,3.609375,57,-72.0,0
1849,3.611328125,57,-71.0,0
1850,3.61328125,57,-71.0,0
1851,3.615234375,57,-87.0,0
1852,3.6171875,57,-97.0,0
1853,3.619140625,57,-81.0,0
1854,3.62109375,57,-62.0,0
1855,3.623046875,57,-59.0,0
1856,3.625,58,-42.0,0
1857,3.626953125,58,-14.0,0
1858,3.62890625,58,5.0,0
1859,3.630859375,58,6.0,0
1860,3.6328125,58,-9.0,0
1861,3.634765625,58,-10.0,0
1862,3.63671875,58,3.0,0
1863,3.638671875,58,13.0,0
1864,3.640625,58,13.0,0
1865,3.642578125,58,20.0,0
1866,3.64453125,58,26.0,0
1867,3.646484375,58,34.0,0
1868,3.6484375,58,60.0,0
1869,3.650390625,58,85.0,0
1870,3.65234375,58,89.0,0
1871,3.654296875,58,82.0,0
1872,3.65625,58,66.0,0
1873,3.658203125,58,54.0,0
1874,3.66015625,58,59.0,0
1875,3.662109375,58,69.0,0
1876,3.6640625,58,67.0,0
1877,3.666015625,58,59.0,0
1878,3.66796875,58,67.0,0
1879,3.669921875,58,72.0,0
1880,3.671875,58,71.0,0
1881,3.673828125,58,80.0,0
1882,3.67578125,58,87.0,0
1883,3.677734375,58,88.0,0
1884,3.6796875,58,91.0,0
1885,3.681640625,58,99.0,0
1886,3.68359375,58,88.0,0
1887,3.685546875,58,77.0,0
1888,3.6875,59,87.0,0
1889,3.689453125,59,88.0,0
1890,3.69140625,59,77.0,0
1891,3.693359375,59,67.0,0
1892,3.6953125,59,64.0,0
1893,3.697265625,59,74.0,0
1894,3.69921875,59,80.0,0
1895,3.701171875,59,87.0,0
1896,3.703125,59,99.0,0
1897,3.705078125,59,99.0,0
1898,3.70703125,59,87.0,0
1899,3.708984375,59,76.0,0
1900,3.7109375,59,73.0,0
1901,3.712890625,59,84.0,0
1902,3.71484375,59,89.0,0
1903,3.716796875,59,77.0,0
1904,3.71875,59,49.0,0
1905,3.720703125,59,32.0,0
1906,3.72265625,59,43.0,0
1907,3.724609375,59,54.0,0
1908,3.7265625,59,48.0,0
1909,3.728515625,59,68.0,0
1910,3.73046875,59,87.0,0
1911,3.732421875,59,76.0,0
1912,3.734375,59,70.0,0
1913,3.736328125,59,59.0,0
1914,3.73828125,59,43.0,0
1915,3.740234375,59,51.0,0
1916,3.7421875,59,72.0,0
1917,3.744140625,59,60.0,0
1918,3.74609375,59,21.0,0
1919,3.748046875,59,6.0,0
1920,3.75,60,-4.0,0
1921,3.751953125,60,-3.0,0
1922,3.75390625,60,16.0,0
1923,3.755859375,60,25.0,0
1924,3.7578125,60,49.0,0
1925,3.759765625,60,72.0,0
1926,3.76171875,60,69.0,0
1927,3.763671875,60,50.0,0
1928,3.765625,60,21.0,0
1929,3.767578125,60,1.0,0
1930,3.76953125,60,0.0,0
1931,3.771484375,60,3.0,0
1932,3.7734375,60,-17.0,0
1933,3.775390625,60,-58.0,0
1934,3.77734375,60,-86.0,0
1935,3.779296875,60,-67.0,0
1936,3.78125,60,-44.0,0
1937,3.783203125,60,-51.0,0
1938,3.78515625,60,-38.0,0
1939,3.787109375,60,-34.0,0
1940,3.7890625,60,-71.0,0
1941,3.791015625,60,-103.0,0
1942,3.79296875,60,-98.0,0
1943,3.794921875,60,-82.0,0
1944,3.796875,60,-52.0,0
1945,3.798828125,60,-29.0,0
1946,3.80078125,60,-44.0,0
1947,3.802734375,60,-56.0,0
1948,3.8046875,60,-41.0,0
1949,3.806640625,60,-37.0,0
1950,3.80859375,60,-62.0,0
1951,3.810546875,60,-94.0,0
1952,3.8125,61,-115.0,0
1953,3.814453125,61,-119.0,0
1954,3.81640625,61,-116.0,0
1955,3.818359375,61,-130.0,0
1956,3.8203125,61,-156.0,0
1957,3.822265625,61,-167.0,0
1958,3.82421875,61,-137.0,0
1959,3.826171875,61,-94.0,0
1960,3.828125,61,-44.0,0
1961,3.830078125,61,-58.0,0
1962,3.83203125,61,-151.0,0
1963,3.833984375,61,-190.0,0
1964,3.8359375,61,-200.0,0
1965,3.837890625,61,-206.0,0
1966,3.83984375,61,-195.0,0
1967,3.841796875,61,-183.0,0
1968,3.84375,61,-203.0,0
1969,3.845703125,61,-229.0,0
1970,3.84765625,61,-222.0,0
1971,3.849609375,61,-184.0,0
1972,3.8515625,61,-116.0,0
1973,3.853515625,61,-99.0,0
1974,3.85546875,61,-135.0,0
1975,3.857421875,61,-167.0,0
1976,3.859375,61,-151.0,0
1977,3.861328125,61,-108.0,0
1978,3.86328125,61,-85.0,0
1979,3.865234375,61,-65.0,0
1980,3.8671875,61,1.0,0
1981,3.869140625,61,5.0,0
1982,3.87109375,61,-23.0,0
1983,3.873046875,61,25.0,0
1984,3.875,62,99.0,0
1985,3.876953125,62,170.0,0
1986,3.87890625,62,85.0,0
1987,3.880859375,62,-70.0,0
1988,3.8828125,62,-113.0,0
1989,3.884765625,62,-23.0,0
1990,3.88671875,62,65.0,0
1991,3.888671875,62,82.0,0
1992,3.890625,62,10.0,0
1993,3.892578125,62,1.0,0
1994,3.89453125,62,76.0,0
1995,3.896484375,62,130.0,0
1996,3.8984375,62,68.0,0
1997,3.900390625,62,23.0,0
1998,3.90234375,62,38.0,0
1999,3.904296875,62,-1.0,0
2000,3.90625,62,-37.0,0
2001,3.908203125,62,-65.0,0
2002,3.91015625,62,-55.0,0
2003,3.912109375,62,-45.0,0
2004,3.9140625,62,-29.0,0
2005,3.916015625,62,0.0,0
2006,3.91796875,62,0.0,0
2007,3.919921875,62,-27.0,0
2008,3.921875,62,-66.0,0
2009,3.923828125,62,-74.0,0
2010,3.92578125,62,-51.0,0
2011,3.927734375,62,-12.0,0
2012,3.9296875,62,11.0,0
2013,3.931640625,62,33.0,0
2014,3.93359375,62,72.0,0
2015,3.935546875,62,178.0,0
2016,3.9375,63,260.0,0
2017,3.939453125,63,251.0,0
2018,3.94140625,63,230.0,0
2019,3.943359375,63,267.0,0
2020,3.9453125,63,218.0,0
2021,3.947265625,63,37.0,0
2022,3.94921875,63,-55.0,0
2023,3.951171875,63,40.0,0
2024,3.953125,63,146.0,0
2025,3.955078125,63,98.0,0
2026,3.95703125,63,-29.0,0
2027,3.958984375,63,-120.0,0
2028,3.9609375,63,-66.0,0
2029,3.962890625,63,28.0,0
2030,3.96484375,63,74.0,0
2031,3.966796875,63,102.0,0
2032,3.96875,63,69.0,0
2033,3.970703125,63,25.0,0
2034,3.97265625,63,96.0,0
2035,3.974609375,63,178.0,0
2036,3.9765625,63,154.0,0
2037,3.978515625,63,71.0,0
2038,3.98046875,63,52.0,0
2039,3.982421875,63,72.0,0
2040,3.984375,63,44.0,0
2041,3.986328125,63,16.0,0
2042,3.98828125,63,12.0,0
2043,3.990234375,63,65.0,0
2044,3.9921875,63,86.0,0
2045,3.994140625,63,50.0,0
2046,3.99609375,63,37.0,0
2047,3.998046875,63,80.0,0
2048,4.0,64,85.0,0
2049,4.001953125,64,29.0,0
2050,4.00390625,64,-6.0,0
2051,4.005859375,64,-11.0,0
2052,4.0078125,64,4.0,0
2053,4.009765625,64,36.0,0
2054,4.01171875,64,67.0,0
2055,4.013671875,64,103.0,0
2056,4.015625,64,132.0,0
2057,4.017578125,64,117.0,0
2058,4.01953125,64,70.0,0
2059,4.021484375,64,44.0,0
2060,4.0234375,64,59.0,0
2061,4.025390625,64,97.0,0
2062,4.02734375,64,132.0,0
2063,4.029296875,64,148.0,0
2064,4.03125,64,149.0,0
2065,4.033203125,64,160.0,0
2066,4.03515625,64,165.0,0
2067,4.037109375,64,146.0,0
2068,4.0390625,64,117.0,0
2069,4.041015625,64,97.0,0
2070,4.04296875,64,81.0,0
2071,4.044921875,64,65.0,0
2072,4.046875,64,80.0,0
2073,4.048828125,64,119.0,0
2074,4.05078125,64,137.0,0
2075,4.052734375,64,114.0,0
2076,4.0546875,64,82.0,0
2077,4.056640625,64,81.0,0
2078,4.05859375,64,103.0,0
2079,4.060546875,64,121.0,0
2080,4.0625,65,121.0,0
2081,4.064453125,65,97.0,0
2082,4.06640625,65,71.0,0
2083,4.068359375,65,67.0,0
2084,4.0703125,65,82.0,0
2085,4.072265625,65,92.0,0
2086,4.07421875,65,93.0,0
2087,4.076171875,65,98.0,0
2088,4.078125,65,107.0,0
2089,4.080078125,65,100.0,0
2090,4.08203125,65,83.0,0
2091,4.083984375,65,75.0,0
2092,4.0859375,65,70.0,0
2093,4.087890625,65,70.0,0
2094,4.08984375,65,68.0,0
2095,4.091796875,65,58.0,0
2096,4.09375,65,52.0,0
2097,4.095703125,65,57.0,0
2098,4.09765625,65,54.0,0
2099,4.099609375,65,43.0,0
2100,4.1015625,65,54.0,0
2101,4.103515625,65,85.0,0
2102,4.10546875,65,89.0,0
2103,4.107421875,65,76.0,0
2104,4.109375,65,81.0,0
2105,4.111328125,65,89.0,0
2106,4.11328125,65,86.0,0
2107,4.115234375,65,76.0,0
2108,4.1171875,65,44.0,0
2109,4.119140625,65,16.0,0
2110,4.12109375,65,33.0,0
2111,4.123046875,65,71.0,0
2112,4.125,66,81.0,0
2113,4.126953125,66,58.0,0
2114,4.12890625,66,37.0,0
2115,4.130859375,66,23.0,0
2116,4.1328125,66,21.0,0
2117,4.134765625,66,33.0,0
2118,4.13671875,66,49.0,0
2119,4.138671875,66,52.0,0
2120,4.140625,66,44.0,0
2121,4.142578125,66,26.0,0
2122,4.14453125,66,13.0,0
2123,4.146484375,66,19.0,0
2124,4.1484375,66,27.0,0
2125,4.150390625,66,36.0,0
2126,4.15234375,66,36.0,0
2127,4.154296875,66,29.0,0
2128,4.15625,66,26.0,0
2129,4.158203125,66,23.0,0
2130,4.16015625,66,20.0,0
2131,4.162109375,66,20.0,0
2132,4.1640625,66,33.0,0
2133,4.166015625,66,51.0,0
2134,4.16796875,66,68.0,0
2135,4.169921875,66,69.0,0
2136,4.171875,66,56.0,0
2137,4.173828125,66,50.0,0
2138,4.17578125,66,54.0,0
2139,4.177734375,66,60.0,0
2140,4.1796875,66,72.0,0
2141,4.181640625,66,77.0,0
2142,4.18359375,66,60.0,0
2143,4.185546875,66,50.0,0
2144,4.1875,67,53.0,0
2145,4.189453125,67,71.0,0
2146,4.19140625,67,84.0,0
2147,4.193359375,67,88.0,0
2148,4.1953125,67,89.0,0
2149,4.197265625,67,87.0,0
2150,4.19921875,67,80.0,0
2151,4.201171875,67,76.0,0
2152,4.203125,67,80.0,0
2153,4.205078125,67,75.0,0
2154,4.20703125,67,74.0,0
2155,4.208984375,67,103.0,0
2156,4.2109375,67,148.0,0
2157,4.212890625,67,165.0,0
2158,4.21484375,67,153.0,0
2159,4.216796875,67,140.0,0
2160,4.21875,67,108.0,0
2161,4.220703125,67,64.0,0
2162,4.22265625,67,39.0,0
2163,4.224609375,67,42.0,0
2164,4.2265625,67,48.0,0
2165,4.228515625,67,60.0,0
2166,4.23046875,67,67.0,0
2167,4.232421875,67,64.0,0
2168,4.234375,67,76.0,0
2169,4.236328125,67,106.0,0
2170,4.23828125,67,112.0,0
2171,4.240234375,67,81.0,0
2172,4.2421875,67,54.0,0
2173,4.244140625,67,57.0,0
2174,4.24609375,67,67.0,0
2175,4.248046875,67,68.0,0
2176,4.25,68,70.0,0
2177,4.251953125,68,61.0,0
2178,4.25390625,68,53.0,0
2179,4.255859375,68,43.0,0
2180,4.2578125,68,45.0,0
2181,4.259765625,68,53.0,0
2182,4.26171875,68,57.0,0
2183,4.263671875,68,75.0,0
2184,4.265625,68,99.0,0
2185,4.267578125,68,99.0,0
2186,4.26953125,68,90.0,0
2187,4.271484375,68,97.0,0
2188,4.2734375,68,102.0,0
2189,4.275390625,68,116.0,0
2190,4.27734375,68,131.0,0
2191,4.279296875,68,131.0,0
2192,4.28125,68,108.0,0
2193,4.283203125,68,84.0,0
2194,4.28515625,68,68.0,0
2195,4.287109375,68,54.0,0
2196,4.2890625,68,40.0,0
2197,4.291015625,68,37.0,0
2198,4.29296875,68,39.0,0
2199,4.294921875,68,35.0,0
2200,4.296875,68,28.0,0
2201,4.298828125,68,37.0,0
2202,4.30078125,68,64.0,0
2203,4.302734375,68,84.0,0
2204,4.3046875,68,101.0,0
2205,4.306640625,68,119.0,0
2206,4.30859375,68,115.0,0
2207,4.310546875,68,103.0,0
2208,4.3125,69,114.0,0
2209,4.314453125,69,105.0,0
2210,4.31640625,69,73.0,0
2211,4.318359375,69,38.0,0
2212,4.3203125,69,19.0,0
2213,4.322265625,69,40.0,0
2214,4.32421875,69,80.0,0
2215,4.326171875,69,90.0,0
2216,4.328125,69,77.0,0
2217,4.330078125,69,54.0,0
2218,4.33203125,69,39.0,0
2219,4.333984375,69,42.0,0
2220,4.3359375,69,69.0,0
2221,4.337890625,69,85.0,0
2222,4.33984375,69,66.0,0
2223,4.341796875,69,28.0,0
2224,4.34375,69,-4.0,0
2225,4.345703125,69,-3.0,0
2226,4.34765625,69,9.0,0
2227,4.349609375,69,20.0,0
2228,4.3515625,69,38.0,0
2229,4.353515625,69,48.0,0
2230,4.35546875,69,42.0,0
2231,4.357421875,69,37.0,0
2232,4.359375,69,45.0,0
2233,4.361328125,69,68.0,0
2234,4.36328125,69,73.0,0
2235,4.365234375,69,54.0,0
2236,4.3671875,69,50.0,0
2237,4.369140625,69,69.0,0
2238,4.37109375,69,89.0,0
2239,4.373046875,69,70.0,0
2240,4.375,70,16.0,0
2241,4.376953125,70,-13.0,0
2242,4.37890625,70,-5.0,0
2243,4.380859375,70,24.0,0
2244,4.3828125,70,58.0,0
2245,4.384765625,70,65.0,0
2246,4.38671875,70,37.0,0
2247,4.388671875,70,22.0,0
2248,4.390625,70,23.0,0
2249,4.392578125,70,18.0,0
2250,4.39453125,70,9.0,0
2251,4.396484375,70,0.0,0
2252,4.3984375,70,-6.0,0
2253,4.400390625,70,19.0,0
2254,4.40234375,70,75.0,0
2255,4.404296875,70,98.0,0
2256,4.40625,70,56.0,0
2257,4.408203125,70,22.0,0
2258,4.41015625,70,35.0,0
2259,4.412109375,70,73.0,0
2260,4.4140625,70,103.0,0
2261,4.416015625,70,99.0,0
2262,4.41796875,70,80.0,0
2263,4.419921875,70,68.0,0
2264,4.421875,70,56.0,0
2265,4.423828125,70,58.0,0
2266,4.42578125,70,73.0,0
2267,4.427734375,70,88.0,0
2268,4.4296875,70,91.0,0
2269,4.431640625,70,81.0,0
2270,4.43359375,70,58.0,0
2271,4.435546875,70,53.0,0
2272,4.4375,71,49.0,0
2273,4.439453125,71,17.0,0
2274,4.44140625,71,-14.0,0
2275,4.443359375,71,-4.0,0
2276,4.4453125,71,55.0,0
2277,4.447265625,71,104.0,0
2278,4.44921875,71,117.0,0
2279,4.451171875,71,115.0,0
2280,4.453125,71,122.0,0
2281,4.455078125,71,138.0,0
2282,4.45703125,71,147.0,0
2283,4.458984375,71,119.0,0
2284,4.4609375,71,61.0,0
2285,4.462890625,71,0.0,0
2286,4.46484375,71,-53.0,0
2287,4.466796875,71,-68.0,0
2288,4.46875,71,-52.0,0
2289,4.470703125,71,-21.0,0
2290,4.47265625,71,21.0,0
2291,4.474609375,71,69.0,0
2292,4.4765625,71,87.0,0
2293,4.478515625,71,49.0,0
2294,4.48046875,71,-8.0,0
2295,4.482421875,71,-35.0,0
2296,4.484375,71,-43.0,0
2297,4.486328125,71,-59.0,0
2298,4.48828125,71,-99.0,0
2299,4.490234375,71,-101.0,0
2300,4.4921875,71,-55.0,0
2301,4.494140625,71,11.0,0
2302,4.49609375,71,38.0,0
2303,4.498046875,71,25.0,0
2304,4.5,72,38.0,0
2305,4.501953125,72,80.0,0
2306,4.50390625,72,98.0,0
2307,4.505859375,72,88.0,0
2308,4.5078125,72,56.0,0
2309,4.509765625,72,32.0,0
2310,4.51171875,72,23.0,0
2311,4.513671875,72,16.0,0
2312,4.515625,72,45.0,0
2313,4.517578125,72,86.0,0
2314,4.51953125,72,86.0,0
2315,4.521484375,72,52.0,0
2316,4.5234375,72,18.0,0
2317,4.525390625,72,18.0,0
2318,4.52734375,72,20.0,0
2319,4.529296875,72,4.0,0
2320,4.53125,72,28.0,0
2321,4.533203125,72,107.0,0
2322,4.53515625,72,140.0,0
2323,4.537109375,72,91.0,0
2324,4.5390625,72,64.0,0
2325,4.541015625,72,92.0,0
2326,4.54296875,72,123.0,0
2327,4.544921875,72,101.0,0
2328,4.546875,72,21.0,0
2329,4.548828125,72,-29.0,0
2330,4.55078125,72,-52.0,0
2331,4.552734375,72,-77.0,0
2332,4.5546875,72,-65.0,0
2333,4.556640625,72,-17.0,0
2334,4.55859375,72,12.0,0
2335,4.560546875,72,5.0,0
2336,4.5625,73,18.0,0
2337,4.564453125,73,59.0,0
2338,4.56640625,73,90.0,0
2339,4.568359375,73,90.0,0
2340,4.5703125,73,65.0,0
2341,4.572265625,73,26.0,0
2342,4.57421875,73,-25.0,0
2343,4.576171875,73,-51.0,0
2344,4.578125,73,3.0,0
2345,4.580078125,73,37.0,0
2346,4.58203125,73,8.0,0
2347,4.583984375,73,-5.0,0
2348,4.5859375,73,-11.0,0
2349,4.587890625,73,-33.0,0
2350,4.58984375,73,-18.0,0
2351,4.591796875,73,0.0,0
2352,4.59375,73,-4.0,0
2353,4.595703125,73,11.0,0
2354,4.59765625,73,42.0,0
2355,4.599609375,73,68.0,0
2356,4.6015625,73,52.0,0
2357,4.603515625,73,-43.0,0
2358,4.60546875,73,-102.0,0
2359,4.607421875,73,26.0,0
2360,4.609375,73,184.0,0
2361,4.611328125,73,165.0,0
2362,4.61328125,73,40.0,0
2363,4.615234375,73,-61.0,0
2364,4.6171875,73,-78.0,0
2365,4.619140625,73,13.0,0
2366,4.62109375,73,66.0,0
2367,4.623046875,73,26.0,0
2368,4.625,74,-5.0,0
2369,4.626953125,74,4.0,0
2370,4.62890625,74,36.0,0
2371,4.630859375,74,43.0,0
2372,4.6328125,74,18.0,0
2373,4.634765625,74,-1.0,0
2374,4.63671875,74,-11.0,0
2375,4.638671875,74,-18.0,0
2376,4.640625,74,43.0,0
2377,4.642578125,74,107.0,0
2378,4.64453125,74,122.0,0
2379,4.646484375,74,73.0,0
2380,4.6484375,74,10.0,0
2381,4.650390625,74,-13.0,0
2382,4.65234375,74,17.0,0
2383,4.654296875,74,53.0,0
2384,4.65625,74,54.0,0
2385,4.658203125,74,32.0,0
2386,4.66015625,74,-28.0,0
2387,4.662109375,74,-73.0,0
2388,4.6640625,74,-22.0,0
2389,4.666015625,74,59.0,0
2390,4.66796875,74,98.0,0
2391,4.669921875,74,93.0,0
2392,4.671875,74,59.0,0
2393,4.673828125,74,6.0,0
2394,4.67578125,74,-37.0,0
2395,4.677734375,74,-72.0,0
2396,4.6796875,74,-94.0,0
2397,4.681640625,74,-75.0,0
2398,4.68359375,74,13.0,0
2399,4.685546875,74,57.0,0
2400,4.6875,75,33.0,0
2401,4.689453125,75,38.0,0
2402,4.69140625,75,86.0,0
2403,4.693359375,75,137.0,0
2404,4.6953125,75,153.0,0
2405,4.697265625,75,121.0,0
2406,4.69921875,75,98.0,0
2407,4.701171875,75,67.0,0
2408,4.703125,75,-5.0,0
2409,4.705078125,75,-52.0,0
2410,4.70703125,75,-42.0,0
2411,4.708984375,75,-39.0,0
2412,4.7109375,75,-44.0,0
2413,4.712890625,75,17.0,0
2414,4.71484375,75,117.0,0
2415,4.716796875,75,168.0,0
2416,4.71875,75,157.0,0
2417,4.720703125,75,123.0,0
2418,4.72265625,75,88.0,0
2419,4.724609375,75,86.0,0
2420,4.7265625,75,124.0,0
2421,4.728515625,75,133.0,0
2422,4.73046875,75,97.0,0
2423,4.732421875,75,64.0,0
2424,4.734375,75,86.0,0
2425,4.736328125,75,147.0,0
2426,4.73828125,75,224.0,0
2427,4.740234375,75,246.0,0
2428,4.7421875,75,184.0,0
2429,4.744140625,75,92.0,0
2430,4.74609375,75,25.0,0
2431,4.748046875,75,-41.0,0
2432,4.75,76,-91.0,0
2433,4.751953125,76,-88.0,0
2434,4.75390625,76,-44.0,0
2435,4.755859375,76,5.0,0
2436,4.7578125,76,38.0,0
2437,4.759765625,76,67.0,0
2438,4.76171875,76,112.0,0
2439,4.763671875,76,119.0,0
2440,4.765625,76,68.0,0
2441,4.767578125,76,56.0,0
2442,4.76953125,76,97.0,0
2443,4.771484375,76,101.0,0
2444,4.7734375,76,54.0,0
2445,4.775390625,76,16.0,0
2446,4.77734375,76,10.0,0
2447,4.779296875,76,-14.0,0
2448,4.78125,76,-14.0,0
2449,4.783203125,76,72.0,0
2450,4.78515625,76,112.0,0
2451,4.787109375,76,1.0,0
2452,4.7890625,76,-136.0,0
2453,4.791015625,76,-182.0,0
2454,4.79296875,76,-117.0,0
2455,4.794921875,76,-24.0,0
2456,4.796875,76,6.0,0
2457,4.798828125,76,-26.0,0
2458,4.80078125,76,-52.0,0
2459,4.802734375,76,-62.0,0
2460,4.8046875,76,-54.0,0
2461,4.806640625,76,-24.0,0
2462,4.80859375,76,0.0,0
2463,4.810546875,76,-9.0,0
2464,4.8125,77,-36.0,0
2465,4.814453125,77,33.0,0
2466,4.81640625,77,123.0,0
2467,4.818359375,77,92.0,0
2468,4.8203125,77,25.0,0
2469,4.822265625,77,55.0,0
2470,4.82421875,77,128.0,0
2471,4.826171875,77,122.0,0
2472,4.828125,77,69.0,0
2473,4.830078125,77,60.0,0
2474,4.83203125,77,96.0,0
2475,4.833984375,77,103.0,0
2476,4.8359375,77,43.0,0
2477,4.837890625,77,-43.0,0
2478,4.83984375,77,-52.0,0
2479,4.841796875,77,11.0,0
2480,4.84375,77,48.0,0
2481,4.845703125,77,27.0,0
2482,4.84765625,77,-22.0,0
2483,4.849609375,77,-51.0,0
2484,4.8515625,77,-58.0,0
2485,4.853515625,77,-40.0,0
2486,4.85546875,77,-42.0,0
2487,4.857421875,77,-76.0,0
2488,4.859375,77,-114.0,0
2489,4.861328125,77,-122.0,0
2490,4.86328125,77,-118.0,0
2491,4.865234375,77,-102.0,0
2492,4.8671875,77,-66.0,0
2493,4.869140625,77,-44.0,0
2494,4.87109375,77,-58.0,0
2495,4.873046875,77,-39.0,0
2496,4.875,78,-3.0,0
2497,4.876953125,78,6.0,0
2498,4.87890625,78,-5.0,0
2499,4.880859375,78,-28.0,0
2500,4.8828125,78,-56.0,0
2501,4.884765625,78,-74.0,0
2502,4.88671875,78,-75.0,0
2503,4.888671875,78,-42.0,0
2504,4.890625,78,-36.0,0
2505,4.892578125,78,-87.0,0
2506,4.89453125,78,-120.0,0
2507,4.896484375,78,-122.0,0
2508,4.8984375,78,-92.0,0
2509,4.900390625,78,-61.0,0
2510,4.90234375,78,-74.0,0
2511,4.904296875,78,-118.0,0
2512,4.90625,78,-168.0,0
2513,4.908203125,78,-172.0,0
2514,4.91015625,78,-148.0,0
2515,4.912109375,78,-163.0,0
2516,4.9140625,78,-202.0,0
2517,4.916015625,78,-220.0,0
2518,4.91796875,78,-216.0,0
2519,4.919921875,78,-190.0,0
2520,4.921875,78,-165.0,0
2521,4.923828125,78,-164.0,0
2522,4.92578125,78,-182.0,0
2523,4.927734375,78,-183.0,0
2524,4.9296875,78,-161.0,0
2525,4.931640625,78,-137.0,0
2526,4.93359375,78,-130.0,0
2527,4.935546875,78,-130.0,0
2528,4.9375,79,-116.0,0
2529,4.939453125,79,-98.0,0
2530,4.94140625,79,-70.0,0
2531,4.943359375,79,-52.0,0
2532,4.9453125,79,-51.0,0
2533,4.947265625,79,-43.0,0
2534,4.94921875,79,-34.0,0
2535,4.951171875,79,-18.0,0
2536,4.953125,79,25.0,0
2537,4.955078125,79,67.0,0
2538,4.95703125,79,80.0,0
2539,4.958984375,79,72.0,0
2540,4.9609375,79,82.0,0
2541,4.962890625,79,92.0,0
2542,4.96484375,79,98.0,0
2543,4.966796875,79,103.0,0
2544,4.96875,79,119.0,0
2545,4.970703125,79,115.0,0
2546,4.97265625,79,104.0,0
2547,4.974609375,79,130.0,0
2548,4.9765625,79,154.0,0
2549,4.978515625,79,146.0,0
2550,4.98046875,79,132.0,0
2551,4.982421875,79,141.0,0
2552,4.984375,79,166.0,0
2553,4.986328125,79,180.0,0
2554,4.98828125,79,179.0,0
2555,4.990234375,79,176.0,0
2556,4.9921875,79,181.0,0
2557,4.994140625,79,199.0,0
2558,4.99609375,79,211.0,0
2559,4.998046875,79,193.0,0
2560,5.0,80,161.0,0
2561,5.001953125,80,137.0,0
2562,5.00390625,80,132.0,0
2563,5.005859375,80,156.0,0
2564,5.0078125,80,187.0,0
2565,5.009765625,80,200.0,0
2566,5.01171875,80,192.0,0
2567,5.013671875,80,183.0,0
2568,5.015625,80,179.0,0
2569,5.017578125,80,180.0,0
2570,5.01953125,80,170.0,0
2571,5.021484375,80,165.0,0
2572,5.0234375,80,168.0,0
2573,5.025390625,80,173.0,0
2574,5.02734375,80,167.0,0
2575,5.029296875,80,152.0,0
2576,5.03125,80,146.0,0
2577,5.033203125,80,151.0,0
2578,5.03515625,80,149.0,0
2579,5.037109375,80,124.0,0
2580,5.0390625,80,89.0,0
2581,5.041015625,80,72.0,0
2582,5.04296875,80,81.0,0
2583,5.044921875,80,90.0,0
2584,5.046875,80,89.0,0
2585,5.048828125,80,87.0,0
2586,5.05078125,80,93.0,0
2587,5.052734375,80,96.0,0
2588,5.0546875,80,92.0,0
2589,5.056640625,80,88.0,0
2590,5.05859375,80,98.0,0
2591,5.060546875,80,117.0,0
2592,5.0625,81,121.0,0
2593,5.064453125,81,117.0,0
2594,5.06640625,81,115.0,0
2595,5.068359375,81,104.0,0
2596,5.0703125,81,86.0,0
2597,5.072265625,81,75.0,0
2598,5.07421875,81,74.0,0
2599,5.076171875,81,70.0,0
2600,5.078125,81,56.0,0
2601,5.080078125,81,35.0,0
2602,5.08203125,81,24.0,0
2603,5.083984375,81,27.0,0
2604,5.0859375,81,38.0,0
2605,5.087890625,81,42.0,0
2606,5.08984375,81,28.0,0
2607,5.091796875,81,21.0,0
2608,5.09375,81,26.0,0
2609,5.095703125,81,26.0,0
2610,5.09765625,81,34.0,0
2611,5.099609375,81,37.0,0
2612,5.1015625,81,33.0,0
2613,5.103515625,81,13.0,0
2614,5.10546875,81,-7.0,0
2615,5.107421875,81,-7.0,0
2616,5.109375,81,6.0,0
2617,5.111328125,81,2.0,0
2618,5.11328125,81,-6.0,0
2619,5.115234375,81,-8.0,0
2620,5.1171875,81,-20.0,0
2621,5.119140625,81,-40.0,0
2622,5.12109375,81,-52.0,0
2623,5.123046875,81,-53.0,0
2624,5.125,82,-50.0,0
2625,5.126953125,82,-53.0,0
2626,5.12890625,82,-67.0,0
2627,5.130859375,82,-73.0,0
2628,5.1328125,82,-67.0,0
2629,5.134765625,82,-57.0,0
2630,5.13671875,82,-57.0,0
2631,5.138671875,82,-55.0,0
2632,5.140625,82,-49.0,0
2633,5.142578125,82,-49.0,0
2634,5.14453125,82,-36.0,0
2635,5.146484375,82,-18.0,0
2636,5.1484375,82,-8.0,0
2637,5.150390625,82,-2.0,0
2638,5.15234375,82,-8.0,0
2639,5.154296875,82,-30.0,0
2640,5.15625,82,-39.0,0
2641,5.158203125,82,-19.0,0
2642,5.16015625,82,-2.0,0
2643,5.162109375,82,5.0,0
2644,5.1640625,82,12.0,0
2645,5.166015625,82,13.0,0
2646,5.16796875,82,13.0,0
2647,5.169921875,82,20.0,0
2648,5.171875,82,25.0,0
2649,5.173828125,82,42.0,0
2650,5.17578125,82,48.0,0
2651,5.177734375,82,26.0,0
2652,5.1796875,82,-2.0,0
2653,5.181640625,82,-11.0,0
2654,5.18359375,82,8.0,0
2655,5.185546875,82,25.0,0
2656,5.1875,83,20.0,0
2657,5.189453125,83,0.0,0
2658,5.19140625,83,-33.0,0
2659,5.193359375,83,-57.0,0
2660,5.1953125,83,-49.0,0
2661,5.197265625,83,-10.0,0
2662,5.19921875,83,25.0,0
2663,5.201171875,83,55.0,0
2664,5.203125,83,80.0,0
2665,5.205078125,83,91.0,0
2666,5.20703125,83,106.0,0
2667,5.208984375,83,132.0,0
2668,5.2109375,83,155.0,0
2669,5.212890625,83,154.0,0
2670,5.21484375,83,140.0,0
2671,5.216796875,83,124.0,0
2672,5.21875,83,114.0,0
2673,5.220703125,83,122.0,0
2674,5.22265625,83,164.0,0
2675,5.224609375,83,203.0,0
2676,5.2265625,83,202.0,0
2677,5.228515625,83,189.0,0
2678,5.23046875,83,182.0,0
2679,5.232421875,83,156.0,0
2680,5.234375,83,147.0,0
2681,5.236328125,83,161.0,0
2682,5.23828125,83,177.0,0
2683,5.240234375,83,156.0,0
2684,5.2421875,83,117.0,0
2685,5.244140625,83,98.0,0
2686,5.24609375,83,109.0,0
2687,5.248046875,83,131.0,0
2688,5.25,84,134.0,0
2689,5.251953125,84,128.0,0
2690,5.25390625,84,133.0,0
2691,5.255859375,84,141.0,0
2692,5.2578125,84,139.0,0
2693,5.259765625,84,149.0,0
2694,5.26171875,84,153.0,0
2695,5.263671875,84,153.0,0
2696,5.265625,84,161.0,0
2697,5.267578125,84,179.0,0
2698,5.26953125,84,196.0,0
2699,5.271484375,84,170.0,0
2700,5.2734375,84,115.0,0
2701,5.275390625,84,107.0,0
2702,5.27734375,84,135.0,0
2703,5.279296875,84,148.0,0
2704,5.28125,84,141.0,0
2705,5.283203125,84,128.0,0
2706,5.28515625,84,131.0,0
2707,5.287109375,84,138.0,0
2708,5.2890625,84,129.0,0
2709,5.291015625,84,120.0,0
2710,5.29296875,84,107.0,0
2711,5.294921875,84,83.0,0
2712,5.296875,84,59.0,0
2713,5.298828125,84,52.0,0
2714,5.30078125,84,38.0,0
2715,5.302734375,84,27.0,0
2716,5.3046875,84,35.0,0
2717,5.306640625,84,54.0,0
2718,5.30859375,84,81.0,0
2719,5.310546875,84,91.0,0
2720,5.3125,85,77.0,0
2721,5.314453125,85,69.0,0
2722,5.31640625,85,92.0,0
2723,5.318359375,85,92.0,0
2724,5.3203125,85,66.0,0
2725,5.322265625,85,41.0,0
2726,5.32421875,85,25.0,0
2727,5.326171875,85,10.0,0
2728,5.328125,85,9.0,0
2729,5.330078125,85,28.0,0
2730,5.33203125,85,51.0,0
2731,5.333984375,85,64.0,0
2732,5.3359375,85,73.0,0
2733,5.337890625,85,76.0,0
2734,5.33984375,85,57.0,0
2735,5.341796875,85,54.0,0
2736,5.34375,85,75.0,0
2737,5.345703125,85,77.0,0
2738,5.34765625,85,70.0,0
2739,5.349609375,85,75.0,0
2740,5.3515625,85,100.0,0
2741,5.353515625,85,92.0,0
2742,5.35546875,85,86.0,0
2743,5.357421875,85,100.0,0
2744,5.359375,85,136.0,0
2745,5.361328125,85,162.0,0
2746,5.36328125,85,157.0,0
2747,5.365234375,85,182.0,0
2748,5.3671875,85,197.0,0
2749,5.369140625,85,153.0,0
2750,5.37109375,85,121.0,0
2751,5.373046875,85,134.0,0
2752,5.375,86,124.0,0
2753,5.376953125,86,80.0,0
2754,5.37890625,86,57.0,0
2755,5.380859375,86,66.0,0
2756,5.3828125,86,83.0,0
2757,5.384765625,86,92.0,0
2758,5.38671875,86,93.0,0
2759,5.388671875,86,82.0,0
2760,5.390625,86,54.0,0
2761,5.392578125,86,36.0,0
2762,5.39453125,86,40.0,0
2763,5.396484375,86,34.0,0
2764,5.3984375,86,16.0,0
2765,5.400390625,86,12.0,0
2766,5.40234375,86,16.0,0
2767,5.404296875,86,20.0,0
2768,5.40625,86,18.0,0
2769,5.408203125,86,1.0,0
2770,5.41015625,86,-6.0,0
2771,5.412109375,86,-1.0,0
2772,5.4140625,86,9.0,0
2773,5.416015625,86,8.0,0
2774,5.41796875,86,-23.0,0
2775,5.419921875,86,-52.0,0
2776,5.421875,86,-36.0,0
2777,5.423828125,86,5.0,0
2778,5.42578125,86,-2.0,0
2779,5.427734375,86,-44.0,0
2780,5.4296875,86,-77.0,0
2781,5.431640625,86,-50.0,0
2782,5.43359375,86,-26.0,0
2783,5.435546875,86,-44.0,0
2784,5.4375,87,-65.0,0
2785,5.439453125,87,-77.0,0
2786,5.44140625,87,-67.0,0
2787,5.443359375,87,-54.0,0
2788,5.4453125,87,-53.0,0
2789,5.447265625,87,-61.0,0
2790,5.44921875,87,-88.0,0
2791,5.451171875,87,-72.0,0
2792,5.453125,87,-30.0,0
2793,5.455078125,87,-9.0,0
2794,5.45703125,87,-3.0,0
2795,5.458984375,87,-12.0,0
2796,5.4609375,87,-12.0,0
2797,5.462890625,87,-26.0,0
2798,5.46484375,87,-70.0,0
2799,5.466796875,87,-81.0,0
2800,5.46875,87,-38.0,0
2801,5.470703125,87,0.0,0
2802,5.47265625,87,-8.0,0
2803,5.474609375,87,-28.0,0
2804,5.4765625,87,-55.0,0
2805,5.478515625,87,-50.0,0
2806,5.48046875,87,-18.0,0
2807,5.482421875,87,-4.0,0
2808,5.484375,87,-7.0,0
2809,5.486328125,87,-1.0,0
2810,5.48828125,87,-7.0,0
2811,5.490234375,87,3.0,0
2812,5.4921875,87,38.0,0
2813,5.494140625,87,51.0,0
2814,5.49609375,87,51.0,0
2815,5.498046875,87,44.0,0
2816,5.5,88,27.0,0
2817,5.501953125,88,7.0,0
2818,5.50390625,88,-14.0,0
2819,5.505859375,88,-34.0,0
2820,5.5078125,88,-26.0,0
2821,5.509765625,88,-10.0,0
2822,5.51171875,88,-13.0,0
2823,5.513671875,88,-6.0,0
2824,5.515625,88,10.0,0
2825,5.517578125,88,16.0,0
2826,5.51953125,88,13.0,0
2827,5.521484375,88,40.0,0
2828,5.5234375,88,84.0,0
2829,5.525390625,88,55.0,0
2830,5.52734375,88,7.0,0
2831,5.529296875,88,16.0,0
2832,5.53125,88,67.0,0
2833,5.533203125,88,91.0,0
2834,5.53515625,88,84.0,0
2835,5.537109375,88,81.0,0
2836,5.5390625,88,11.0,0
2837,5.541015625,88,-91.0,0
2838,5.54296875,88,-115.0,0
2839,5.544921875,88,-77.0,0
2840,5.546875,88,-27.0,0
2841,5.548828125,88,18.0,0
2842,5.55078125,88,43.0,0
2843,5.552734375,88,21.0,0
2844,5.5546875,88,8.0,0
2845,5.556640625,88,44.0,0
2846,5.55859375,88,100.0,0
2847,5.560546875,88,129.0,0
2848,5.5625,89,118.0,0
2849,5.564453125,89,55.0,0
2850,5.56640625,89,-7.0,0
2851,5.568359375,89,9.0,0
2852,5.5703125,89,51.0,0
2853,5.572265625,89,59.0,0
2854,5.57421875,89,37.0,0
2855,5.576171875,89,25.0,0
2856,5.578125,89,59.0,0
2857,5.580078125,89,69.0,0
2858,5.58203125,89,35.0,0
2859,5.583984375,89,-22.0,0
2860,5.5859375,89,-44.0,0
2861,5.587890625,89,-34.0,0
2862,5.58984375,89,-12.0,0
2863,5.591796875,89,10.0,0
2864,5.59375,89,20.0,0
2865,5.595703125,89,-1.0,0
2866,5.59765625,89,-26.0,0
2867,5.599609375,89,-36.0,0
2868,5.6015625,89,-22.0,0
2869,5.603515625,89,7.0,0
2870,5.60546875,89,18.0,0
2871,5.607421875,89,-1.0,0
2872,5.609375,89,5.0,0
2873,5.611328125,89,26.0,0
2874,5.61328125,89,42.0,0
2875,5.615234375,89,48.0,0
2876,5.6171875,89,43.0,0
2877,5.619140625,89,26.0,0
2878,5.62109375,89,12.0,0
2879,5.623046875,89,-7.0,0
2880,5.625,90,-22.0,0
2881,5.626953125,90,-9.0,0
2882,5.62890625,90,-10.0,0
2883,5.630859375,90,-13.0,0
2884,5.6328125,90,0.0,0
2885,5.634765625,90,11.0,0
2886,5.63671875,90,3.0,0
2887,5.638671875,90,19.0,0
2888,5.640625,90,34.0,0
2889,5.642578125,90,42.0,0
2890,5.64453125,90,49.0,0
2891,5.646484375,90,35.0,0
2892,5.6484375,90,18.0,0
2893,5.650390625,90,19.0,0
2894,5.65234375,90,45.0,0
2895,5.654296875,90,81.0,0
2896,5.65625,90,68.0,0
2897,5.658203125,90,33.0,0
2898,5.66015625,90,16.0,0
2899,5.662109375,90,33.0,0
2900,5.6640625,90,37.0,0
2901,5.666015625,90,41.0,0
2902,5.66796875,90,44.0,0
2903,5.669921875,90,60.0,0
2904,5.671875,90,71.0,0
2905,5.673828125,90,55.0,0
2906,5.67578125,90,35.0,0
2907,5.677734375,90,28.0,0
2908,5.6796875,90,36.0,0
2909,5.681640625,90,36.0,0
2910,5.68359375,90,39.0,0
2911,5.685546875,90,27.0,0
2912,5.6875,91,-10.0,0
2913,5.689453125,91,-42.0,0
2914,5.69140625,91,-34.0,0
2915,5.693359375,91,-5.0,0
2916,5.6953125,91,6.0,0
2917,5.697265625,91,19.0,0
2918,5.69921875,91,33.0,0
2919,5.701171875,91,49.0,0
2920,5.703125,91,82.0,0
2921,5.705078125,91,138.0,0
2922,5.70703125,91,148.0,0
2923,5.708984375,91,105.0,0
2924,5.7109375,91,115.0,0
2925,5.712890625,91,139.0,0
2926,5.71484375,91,161.0,0
2927,5.716796875,91,163.0,0
2928,5.71875,91,136.0,0
2929,5.720703125,91,107.0,0
2930,5.72265625,91,100.0,0
2931,5.724609375,91,133.0,0
2932,5.7265625,91,151.0,0
2933,5.728515625,91,129.0,0
2934,5.73046875,91,119.0,0
2935,5.732421875,91,145.0,0
2936,5.734375,91,131.0,0
2937,5.736328125,91,104.0,0
2938,5.73828125,91,96.0,0
2939,5.740234375,91,88.0,0
2940,5.7421875,91,96.0,0
2941,5.744140625,91,77.0,0
2942,5.74609375,91,18.0,0
2943,5.748046875,91,-13.0,0
2944,5.75,92,2.0,0
2945,5.751953125,92,10.0,0
2946,5.75390625,92,5.0,0
2947,5.755859375,92,10.0,0
2948,5.7578125,92,8.0,0
2949,5.759765625,92,-23.0,0
2950,5.76171875,92,-44.0,0
2951,5.763671875,92,-25.0,0
2952,5.765625,92,18.0,0
2953,5.767578125,92,37.0,0
2954,5.76953125,92,-14.0,0
2955,5.771484375,92,-58.0,0
2956,5.7734375,92,-56.0,0
2957,5.775390625,92,-35.0,0
2958,5.77734375,92,3.0,0
2959,5.779296875,92,28.0,0
2960,5.78125,92,37.0,0
2961,5.783203125,92,17.0,0
2962,5.78515625,92,-14.0,0
2963,5.787109375,92,-8.0,0
2964,5.7890625,92,42.0,0
2965,5.791015625,92,100.0,0
2966,5.79296875,92,76.0,0
2967,5.794921875,92,27.0,0
2968,5.796875,92,5.0,0
2969,5.798828125,92,20.0,0
2970,5.80078125,92,69.0,0
2971,5.802734375,92,81.0,0
2972,5.8046875,92,56.0,0
2973,5.806640625,92,37.0,0
2974,5.80859375,92,42.0,0
2975,5.810546875,92,25.0,0
2976,5.8125,93,17.0,0
2977,5.814453125,93,54.0,0
2978,5.81640625,93,68.0,0
2979,5.818359375,93,32.0,0
2980,5.8203125,93,18.0,0
2981,5.822265625,93,35.0,0
2982,5.82421875,93,42.0,0
2983,5.826171875,93,65.0,0
2984,5.828125,93,100.0,0
2985,5.830078125,93,106.0,0
2986,5.83203125,93,64.0,0
2987,5.833984375,93,45.0,0
2988,5.8359375,93,12.0,0
2989,5.837890625,93,20.0,0
2990,5.83984375,93,48.0,0
2991,5.841796875,93,41.0,0
2992,5.84375,93,42.0,0
2993,5.845703125,93,65.0,0
2994,5.84765625,93,83.0,0
2995,5.849609375,93,76.0,0
2996,5.8515625,93,58.0,0
2997,5.853515625,93,33.0,0
2998,5.85546875,93,56.0,0
2999,5.857421875,93,83.0,0
3000,5.859375,93,44.0,0
3001,5.861328125,93,-1.0,0
3002,5.86328125,93,-21.0,0
3003,5.865234375,93,-22.0,0
3004,5.8671875,93,7.0,0
3005,5.869140625,93,32.0,0
3006,5.87109375,93,54.0,0
3007,5.873046875,93,59.0,0
3008,5.875,94,32.0,0
3009,5.876953125,94,-8.0,0
3010,5.87890625,94,-26.0,0
3011,5.880859375,94,-24.0,0
3012,5.8828125,94,6.0,0
3013,5.884765625,94,72.0,0
3014,5.88671875,94,106.0,0
3015,5.888671875,94,72.0,0
3016,5.890625,94,35.0,0
3017,5.892578125,94,25.0,0
3018,5.89453125,94,38.0,0
3019,5.896484375,94,72.0,0
3020,5.8984375,94,118.0,0
3021,5.900390625,94,105.0,0
3022,5.90234375,94,29.0,0
3023,5.904296875,94,-13.0,0
3024,5.90625,94,-8.0,0
3025,5.908203125,94,24.0,0
3026,5.91015625,94,36.0,0
3027,5.912109375,94,24.0,0
3028,5.9140625,94,5.0,0
3029,5.916015625,94,-10.0,0
3030,5.91796875,94,16.0,0
3031,5.919921875,94,73.0,0
3032,5.921875,94,115.0,0
3033,5.923828125,94,104.0,0
3034,5.92578125,94,83.0,0
3035,5.927734375,94,84.0,0
3036,5.9296875,94,75.0,0
3037,5.931640625,94,43.0,0
3038,5.93359375,94,5.0,0
3039,5.935546875,94,-13.0,0
3040,5.9375,95,-6.0,0
3041,5.939453125,95,34.0,0
3042,5.94140625,95,71.0,0
3043,5.943359375,95,44.0,0
3044,5.9453125,95,-6.0,0
3045,5.947265625,95,-11.0,0
3046,5.94921875,95,39.0,0
3047,5.951171875,95,85.0,0
3048,5.953125,95,90.0,0
3049,5.955078125,95,69.0,0
3050,5.95703125,95,7.0,0
3051,5.958984375,95,-66.0,0
3052,5.9609375,95,-91.0,0
3053,5.962890625,95,-44.0,0
3054,5.96484375,95,21.0,0
3055,5.966796875,95,69.0,0
3056,5.96875,95,92.0,0
3057,5.970703125,95,84.0,0
3058,5.97265625,95,80.0,0
3059,5.974609375,95,116.0,0
3060,5.9765625,95,155.0,0
3061,5.978515625,95,156.0,0
3062,5.98046875,95,130.0,0
3063,5.982421875,95,82.0,0
3064,5.984375,95,40.0,0
3065,5.986328125,95,21.0,0
3066,5.98828125,95,36.0,0
3067,5.990234375,95,76.0,0
3068,5.9921875,95,97.0,0
3069,5.994140625,95,93.0,0
3070,5.99609375,95,80.0,0
3071,5.998046875,95,53.0,0
3072,6.0,96,42.0,0
3073,6.001953125,96,59.0,0
3074,6.00390625,96,80.0,0
3075,6.005859375,96,70.0,0
3076,6.0078125,96,23.0,0
3077,6.009765625,96,-28.0,0
3078,6.01171875,96,-41.0,0
3079,6.013671875,96,-14.0,0
3080,6.015625,96,-4.0,0
3081,6.017578125,96,-18.0,0
3082,6.01953125,96,-41.0,0
3083,6.021484375,96,-69.0,0
3084,6.0234375,96,-82.0,0
3085,6.025390625,96,-65.0,0
3086,6.02734375,96,-43.0,0
3087,6.029296875,96,-45.0,0
3088,6.03125,96,-58.0,0
3089,6.033203125,96,-73.0,0
3090,6.03515625,96,-70.0,0
3091,6.037109375,96,-61.0,0
3092,6.0390625,96,-57.0,0
3093,6.041015625,96,-51.0,0
3094,6.04296875,96,-45.0,0
3095,6.044921875,96,-45.0,0
3096,6.046875,96,-43.0,0
3097,6.048828125,96,-30.0,0
3098,6.05078125,96,-39.0,0
3099,6.052734375,96,-53.0,0
3100,6.0546875,96,-76.0,0
3101,6.056640625,96,-92.0,0
3102,6.05859375,96,-82.0,0
3103,6.060546875,96,-57.0,0
3104,6.0625,97,-44.0,0
3105,6.064453125,97,-33.0,0
3106,6.06640625,97,-27.0,0
3107,6.068359375,97,-36.0,0
3108,6.0703125,97,-59.0,0
3109,6.072265625,97,-74.0,0
3110,6.07421875,97,-66.0,0
3111,6.076171875,97,-45.0,0
3112,6.078125,97,-38.0,0
3113,6.080078125,97,-24.0,0
3114,6.08203125,97,-6.0,0
3115,6.083984375,97,-2.0,0
3116,6.0859375,97,5.0,0
3117,6.087890625,97,7.0,0
3118,6.08984375,97,9.0,0
3119,6.091796875,97,21.0,0
3120,6.09375,97,26.0,0
3121,6.095703125,97,24.0,0
3122,6.09765625,97,35.0,0
3123,6.099609375,97,59.0,0
3124,6.1015625,97,71.0,0
3125,6.103515625,97,86.0,0
3126,6.10546875,97,91.0,0
3127,6.107421875,97,85.0,0
3128,6.109375,97,80.0,0
3129,6.111328125,97,85.0,0
3130,6.11328125,97,100.0,0
3131,6.115234375,97,103.0,0
3132,6.1171875,97,91.0,0
3133,6.119140625,97,83.0,0
3134,6.12109375,97,87.0,0
3135,6.123046875,97,88.0,0
3136,6.125,98,91.0,0
3137,6.126953125,98,101.0,0
3138,6.12890625,98,118.0,0
3139,6.130859375,98,123.0,0
3140,6.1328125,98,107.0,0
3141,6.134765625,98,88.0,0
3142,6.13671875,98,80.0,0
3143,6.138671875,98,85.0,0
3144,6.140625,98,106.0,0
3145,6.142578125,98,122.0,0
3146,6.14453125,98,112.0,0
3147,6.146484375,98,85.0,0
3148,6.1484375,98,76.0,0
3149,6.150390625,98,85.0,0
3150,6.15234375,98,91.0,0
3151,6.154296875,98,96.0,0
3152,6.15625,98,98.0,0
3153,6.158203125,98,105.0,0
3154,6.16015625,98,103.0,0
3155,6.162109375,98,98.0,0
3156,6.1640625,98,97.0,0
3157,6.166015625,98,97.0,0
3158,6.16796875,98,90.0,0
3159,6.169921875,98,81.0,0
3160,6.171875,98,72.0,0
3161,6.173828125,98,80.0,0
3162,6.17578125,98,106.0,0
3163,6.177734375,98,122.0,0
3164,6.1796875,98,106.0,0
3165,6.181640625,98,91.0,0
3166,6.18359375,98,87.0,0
3167,6.185546875,98,80.0,0
3168,6.1875,99,64.0,33553
3169,6.189453125,99,64.0,33553:33554
3170,6.19140625,99,55.0,0
3171,6.193359375,99,51.0,0
3172,6.1953125,99,54.0,0
3173,6.197265625,99,70.0,0
3174,6.19921875,99,69.0,0
3175,6.201171875,99,20.0,0
3176,6.203125,99,-26.0,0
3177,6.205078125,99,-36.0,0
3178,6.20703125,99,-36.0,0
3179,6.208984375,99,-41.0,0
3180,6.2109375,99,-55.0,0
3181,6.212890625,99,-54.0,0
3182,6.21484375,99,-51.0,0
3183,6.216796875,99,-60.0,0
3184,6.21875,99,-55.0,0
3185,6.220703125,99,-39.0,0
3186,6.22265625,99,-33.0,0
3187,6.224609375,99,-41.0,0
3188,6.2265625,99,-53.0,0
3189,6.228515625,99,-52.0,0
3190,6.23046875,99,-43.0,0
3191,6.232421875,99,-37.0,0
3192,6.234375,99,-34.0,0
3193,6.236328125,99,-26.0,0
3194,6.23828125,99,2.0,0
3195,6.240234375,99,35.0,0
3196,6.2421875,99,50.0,0
3197,6.244140625,99,54.0,0
3198,6.24609375,99,57.0,0
3199,6.248046875,99,58.0,0
3200,6.25,100,49.0,0
3201,6.251953125,100,35.0,0
3202,6.25390625,100,38.0,0
3203,6.255859375,100,58.0,0
3204,6.2578125,100,75.0,0
3205,6.259765625,100,76.0,0
3206,6.26171875,100,72.0,0
3207,6.263671875,100,81.0,0
3208,6.265625,100,105.0,0
3209,6.267578125,100,119.0,0
3210,6.26953125,100,108.0,0
3211,6.271484375,100,85.0,0
3212,6.2734375,100,84.0,0
3213,6.275390625,100,96.0,0
3214,6.27734375,100,86.0,0
3215,6.279296875,100,72.0,0
3216,6.28125,100,71.0,0
3217,6.283203125,100,73.0,0
3218,6.28515625,100,82.0,0
3219,6.287109375,100,87.0,0
3220,6.2890625,100,98.0,0
3221,6.291015625,100,112.0,0
3222,6.29296875,100,120.0,0
3223,6.294921875,100,121.0,0
3224,6.296875,100,112.0,0
3225,6.298828125,100,113.0,0
3226,6.30078125,100,122.0,0
3227,6.302734375,100,135.0,0
3228,6.3046875,100,133.0,0
3229,6.306640625,100,120.0,0
3230,6.30859375,100,122.0,0
3231,6.310546875,100,134.0,0
3232,6.3125,101,133.0,0
3233,6.314453125,101,123.0,0
3234,6.31640625,101,129.0,0
3235,6.318359375,101,136.0,0
3236,6.3203125,101,145.0,0
3237,6.322265625,101,150.0,0
3238,6.32421875,101,138.0,0
3239,6.326171875,101,123.0,0
3240,6.328125,101,117.0,0
3241,6.330078125,101,106.0,0
3242,6.33203125,101,97.0,0
3243,6.333984375,101,97.0,0
3244,6.3359375,101,104.0,0
3245,6.337890625,101,119.0,0
3246,6.33984375,101,124.0,0
3247,6.341796875,101,115.0,0
3248,6.34375,101,88.0,0
3249,6.345703125,101,67.0,0
3250,6.34765625,101,66.0,0
3251,6.349609375,101,75.0,0
3252,6.3515625,101,82.0,0
3253,6.353515625,101,87.0,0
3254,6.35546875,101,104.0,0
3255,6.357421875,101,105.0,0
3256,6.359375,101,88.0,0
3257,6.361328125,101,77.0,0
3258,6.36328125,101,70.0,0
3259,6.365234375,101,67.0,0
3260,6.3671875,101,58.0,0
3261,6.369140625,101,42.0,0
3262,6.37109375,101,38.0,0
3263,6.373046875,101,53.0,0
3264,6.375,102,64.0,0
3265,6.376953125,102,66.0,33553
3266,6.37890625,102,66.0,33554
3267,6.380859375,102,68.0,0
3268,6.3828125,102,69.0,0
3269,6.384765625,102,64.0,0
3270,6.38671875,102,45.0,0
3271,6.388671875,102,28.0,0
3272,6.390625,102,27.0,0
3273,6.392578125,102,29.0,0
3274,6.39453125,102,22.0,0
3275,6.396484375,102,8.0,0
3276,6.3984375,102,4.0,0
3277,6.400390625,102,7.0,0
3278,6.40234375,102,6.0,0
3279,6.404296875,102,12.0,0
3280,6.40625,102,5.0,0
3281,6.408203125,102,-13.0,0
3282,6.41015625,102,-21.0,0
3283,6.412109375,102,-20.0,0
3284,6.4140625,102,-22.0,0
3285,6.416015625,102,-27.0,0
3286,6.41796875,102,-27.0,0
3287,6.419921875,102,-24.0,0
3288,6.421875,102,-13.0,0
3289,6.423828125,102,-18.0,0
3290,6.42578125,102,-24.0,0
3291,6.427734375,102,-8.0,0
3292,6.4296875,102,18.0,0
3293,6.431640625,102,28.0,0
3294,6.43359375,102,28.0,0
3295,6.435546875,102,32.0,0
3296,6.4375,103,23.0,0
3297,6.439453125,103,9.0,0
3298,6.44140625,103,-9.0,0
3299,6.443359375,103,-37.0,0
3300,6.4453125,103,-43.0,0
3301,6.447265625,103,-37.0,0
3302,6.44921875,103,-30.0,0
3303,6.451171875,103,-35.0,0
3304,6.453125,103,-28.0,0
3305,6.455078125,103,-1.0,0
3306,6.45703125,103,49.0,0
3307,6.458984375,103,89.0,0
3308,6.4609375,103,107.0,0
3309,6.462890625,103,98.0,0
3310,6.46484375,103,85.0,0
3311,6.466796875,103,91.0,0
3312,6.46875,103,101.0,0
3313,6.470703125,103,91.0,0
3314,6.47265625,103,90.0,0
3315,6.474609375,103,102.0,0
3316,6.4765625,103,90.0,0
3317,6.478515625,103,70.0,0
3318,6.48046875,103,73.0,0
3319,6.482421875,103,86.0,0
3320,6.484375,103,89.0,0
3321,6.486328125,103,75.0,0
3322,6.48828125,103,66.0,0
3323,6.490234375,103,64.0,0
3324,6.4921875,103,58.0,0
3325,6.494140625,103,40.0,0
3326,6.49609375,103,9.0,0
3327,6.498046875,103,-2.0,0
3328,6.5,104,6.0,0
3329,6.501953125,104,28.0,0
3330,6.50390625,104,56.0,0
3331,6.505859375,104,68.0,0
3332,6.5078125,104,67.0,0
3333,6.509765625,104,83.0,0
3334,6.51171875,104,102.0,0
3335,6.513671875,104,90.0,0
3336,6.515625,104,51.0,0
3337,6.517578125,104,34.0,0
3338,6.51953125,104,42.0,0
3339,6.521484375,104,60.0,0
3340,6.5234375,104,57.0,0
3341,6.525390625,104,56.0,0
3342,6.52734375,104,81.0,0
3343,6.529296875,104,101.0,0
3344,6.53125,104,85.0,0
3345,6.533203125,104,44.0,0
3346,6.53515625,104,36.0,0
3347,6.537109375,104,43.0,0
3348,6.5390625,104,49.0,0
3349,6.541015625,104,55.0,0
3350,6.54296875,104,45.0,0
3351,6.544921875,104,32.0,0
3352,6.546875,104,54.0,0
3353,6.548828125,104,74.0,0
3354,6.55078125,104,69.0,0
3355,6.552734375,104,40.0,0
3356,6.5546875,104,-8.0,0
3357,6.556640625,104,-36.0,0
3358,6.55859375,104,-24.0,0
3359,6.560546875,104,11.0,0
3360,6.5625,105,37.0,0
3361,6.564453125,105,23.0,0
3362,6.56640625,105,13.0,0
3363,6.568359375,105,36.0,0
3364,6.5703125,105,64.0,0
3365,6.572265625,105,68.0,0
3366,6.57421875,105,50.0,0
3367,6.576171875,105,21.0,0
3368,6.578125,105,21.0,0
3369,6.580078125,105,59.0,0
3370,6.58203125,105,100.0,0
3371,6.583984375,105,106.0,0
3372,6.5859375,105,77.0,0
3373,6.587890625,105,58.0,0
3374,6.58984375,105,66.0,0
3375,6.591796875,105,72.0,0
3376,6.59375,105,80.0,0
3377,6.595703125,105,76.0,0
3378,6.59765625,105,72.0,0
3379,6.599609375,105,83.0,0
3380,6.6015625,105,72.0,0
3381,6.603515625,105,45.0,0
3382,6.60546875,105,29.0,0
3383,6.607421875,105,44.0,0
3384,6.609375,105,53.0,0
3385,6.611328125,105,41.0,0
3386,6.61328125,105,29.0,0
3387,6.615234375,105,34.0,0
3388,6.6171875,105,38.0,0
3389,6.619140625,105,43.0,0
3390,6.62109375,105,65.0,0
3391,6.623046875,105,82.0,0
3392,6.625,106,77.0,0
3393,6.626953125,106,72.0,0
3394,6.62890625,106,75.0,0
3395,6.630859375,106,75.0,0
3396,6.6328125,106,55.0,0
3397,6.634765625,106,43.0,0
3398,6.63671875,106,44.0,0
3399,6.638671875,106,42.0,0
3400,6.640625,106,38.0,0
3401,6.642578125,106,19.0,0
3402,6.64453125,106,5.0,0
3403,6.646484375,106,19.0,0
3404,6.6484375,106,36.0,0
3405,6.650390625,106,27.0,0
3406,6.65234375,106,8.0,0
3407,6.654296875,106,0.0,0
3408,6.65625,106,32.0,0
3409,6.658203125,106,67.0,0
3410,6.66015625,106,71.0,0
3411,6.662109375,106,60.0,0
3412,6.6640625,106,49.0,0
3413,6.666015625,106,51.0,0
3414,6.66796875,106,73.0,0
3415,6.669921875,106,82.0,0
3416,6.671875,106,77.0,0
3417,6.673828125,106,82.0,0
3418,6.67578125,106,72.0,0
3419,6.677734375,106,50.0,0
3420,6.6796875,106,39.0,0
3421,6.681640625,106,68.0,0
3422,6.68359375,106,112.0,0
3423,6.685546875,106,131.0,0
3424,6.6875,107,123.0,0
3425,6.689453125,107,108.0,0
3426,6.69140625,107,98.0,0
3427,6.693359375,107,83.0,0
3428,6.6953125,107,74.0,0
3429,6.697265625,107,75.0,0
3430,6.69921875,107,69.0,0
3431,6.701171875,107,48.0,0
3432,6.703125,107,41.0,0
3433,6.705078125,107,56.0,0
3434,6.70703125,107,71.0,0
3435,6.708984375,107,80.0,0
3436,6.7109375,107,82.0,0
3437,6.712890625,107,74.0,0
3438,6.71484375,107,55.0,0
3439,6.716796875,107,34.0,0
3440,6.71875,107,28.0,0
3441,6.720703125,107,39.0,0
3442,6.72265625,107,60.0,0
3443,6.724609375,107,83.0,0
3444,6.7265625,107,103.0,0
3445,6.728515625,107,88.0,0
3446,6.73046875,107,55.0,0
3447,6.732421875,107,34.0,0
3448,6.734375,107,28.0,0
3449,6.736328125,107,42.0,0
3450,6.73828125,107,51.0,0
3451,6.740234375,107,37.0,0
3452,6.7421875,107,25.0,0
3453,6.744140625,107,43.0,0
3454,6.74609375,107,67.0,0
3455,6.748046875,107,66.0,0
3456,6.75,108,57.0,0
3457,6.751953125,108,57.0,0
3458,6.75390625,108,59.0,0
3459,6.755859375,108,60.0,0
3460,6.7578125,108,64.0,0
3461,6.759765625,108,50.0,0
3462,6.76171875,108,37.0,0
3463,6.763671875,108,38.0,0
3464,6.765625,108,44.0,0
3465,6.767578125,108,38.0,0
3466,6.76953125,108,49.0,0
3467,6.771484375,108,73.0,0
3468,6.7734375,108,87.0,0
3469,6.775390625,108,60.0,0
3470,6.77734375,108,33.0,0
3471,6.779296875,108,39.0,0
3472,6.78125,108,69.0,0
3473,6.783203125,108,84.0,0
3474,6.78515625,108,75.0,0
3475,6.787109375,108,60.0,0
3476,6.7890625,108,48.0,0
3477,6.791015625,108,50.0,0
3478,6.79296875,108,66.0,0
3479,6.794921875,108,80.0,0
3480,6.796875,108,83.0,0
3481,6.798828125,108,91.0,0
3482,6.80078125,108,86.0,0
3483,6.802734375,108,69.0,0
3484,6.8046875,108,64.0,0
3485,6.806640625,108,72.0,0
3486,6.80859375,108,68.0,0
3487,6.810546875,108,54.0,0
3488,6.8125,109,50.0,0
3489,6.814453125,109,61.0,0
3490,6.81640625,109,90.0,0
3491,6.818359375,109,83.0,0
3492,6.8203125,109,59.0,0
3493,6.822265625,109,53.0,0
3494,6.82421875,109,52.0,0
3495,6.826171875,109,40.0,0
3496,6.828125,109,21.0,0
3497,6.830078125,109,24.0,0
3498,6.83203125,109,41.0,0
3499,6.833984375,109,53.0,0
3500,6.8359375,109,66.0,0
3501,6.837890625,109,73.0,0
3502,6.83984375,109,81.0,0
3503,6.841796875,109,84.0,0
3504,6.84375,109,74.0,0
3505,6.845703125,109,67.0,0
3506,6.84765625,109,73.0,0
3507,6.849609375,109,70.0,0
3508,6.8515625,109,64.0,0
3509,6.853515625,109,68.0,0
3510,6.85546875,109,61.0,0
3511,6.857421875,109,55.0,0
3512,6.859375,109,67.0,0
3513,6.861328125,109,76.0,0
3514,6.86328125,109,69.0,0
3515,6.865234375,109,52.0,0
3516,6.8671875,109,43.0,0
3517,6.869140625,109,32.0,0
3518,6.87109375,109,25.0,0
3519,6.873046875,109,38.0,0
3520,6.875,110,55.0,0
3521,6.876953125,110,43.0,0
3522,6.87890625,110,18.0,0
3523,6.880859375,110,6.0,0
3524,6.8828125,110,25.0,0
3525,6.884765625,110,53.0,0
3526,6.88671875,110,68.0,0
3527,6.888671875,110,65.0,0
3528,6.890625,110,60.0,0
3529,6.892578125,110,65.0,0
3530,6.89453125,110,65.0,0
3531,6.896484375,110,64.0,0
3532,6.8984375,110,66.0,0
3533,6.900390625,110,68.0,0
3534,6.90234375,110,58.0,0
3535,6.904296875,110,41.0,0
3536,6.90625,110,36.0,0
3537,6.908203125,110,35.0,0
3538,6.91015625,110,33.0,0
3539,6.912109375,110,28.0,0
3540,6.9140625,110,16.0,0
3541,6.916015625,110,22.0,0
3542,6.91796875,110,39.0,0
3543,6.919921875,110,37.0,0
3544,6.921875,110,11.0,0
3545,6.923828125,110,-8.0,0
3546,6.92578125,110,1.0,0
3547,6.927734375,110,22.0,0
3548,6.9296875,110,39.0,0
3549,6.931640625,110,54.0,0
3550,6.93359375,110,53.0,0
3551,6.935546875,110,28.0,0
3552,6.9375,111,20.0,0
3553,6.939453125,111,26.0,0
3554,6.94140625,111,33.0,0
3555,6.943359375,111,34.0,0
3556,6.9453125,111,40.0,0
3557,6.947265625,111,44.0,0
3558,6.94921875,111,40.0,0
3559,6.951171875,111,38.0,0
3560,6.953125,111,35.0,0
3561,6.955078125,111,35.0,0
3562,6.95703125,111,36.0,0
3563,6.958984375,111,36.0,0
3564,6.9609375,111,27.0,0
3565,6.962890625,111,26.0,0
3566,6.96484375,111,24.0,0
3567,6.966796875,111,28.0,0
3568,6.96875,111,44.0,0
3569,6.970703125,111,43.0,0
3570,6.97265625,111,32.0,0
3571,6.974609375,111,9.0,0
3572,6.9765625,111,3.0,0
3573,6.978515625,111,9.0,0
3574,6.98046875,111,20.0,0
3575,6.982421875,111,32.0,0
3576,6.984375,111,38.0,0
3577,6.986328125,111,24.0,0
3578,6.98828125,111,5.0,0
3579,6.990234375,111,2.0,0
3580,6.9921875,111,13.0,0
3581,6.994140625,111,33.0,0
3582,6.99609375,111,37.0,0
3583,6.998046875,111,36.0,0
3584,7.0,112,37.0,0
3585,7.001953125,112,33.0,0
3586,7.00390625,112,44.0,33552
3587,7.005859375,112,58.0,0
3588,7.0078125,112,69.0,0
3589,7.009765625,112,65.0,0
3590,7.01171875,112,50.0,0
3591,7.013671875,112,28.0,0
3592,7.015625,112,27.0,0
3593,7.017578125,112,38.0,0
3594,7.01953125,112,29.0,0
3595,7.021484375,112,21.0,0
3596,7.0234375,112,18.0,0
3597,7.025390625,112,9.0,0
3598,7.02734375,112,-8.0,0
3599,7.029296875,112,-40.0,0
3600,7.03125,112,-55.0,0
3601,7.033203125,112,-61.0,0
3602,7.03515625,112,-76.0,0
3603,7.037109375,112,-100.0,0
3604,7.0390625,112,-108.0,0
3605,7.041015625,112,-113.0,0
3606,7.04296875,112,-120.0,0
3607,7.044921875,112,-130.0,0
3608,7.046875,112,-115.0,0
3609,7.048828125,112,-90.0,0
3610,7.05078125,112,-90.0,0
3611,7.052734375,112,-89.0,0
3612,7.0546875,112,-84.0,0
3613,7.056640625,112,-75.0,0
3614,7.05859375,112,-65.0,0
3615,7.060546875,112,-51.0,0
3616,7.0625,113,-45.0,0
3617,7.064453125,113,-45.0,0
3618,7.06640625,113,-46.0,0
3619,7.068359375,113,-44.0,0
3620,7.0703125,113,-46.0,0
3621,7.072265625,113,-39.0,0
3622,7.07421875,113,-25.0,0
3623,7.076171875,113,-20.0,0
3624,7.078125,113,-23.0,0
3625,7.080078125,113,-34.0,0
3626,7.08203125,113,-33.0,0
3627,7.083984375,113,-17.0,0
3628,7.0859375,113,7.0,0
3629,7.087890625,113,22.0,0
3630,7.08984375,113,27.0,0
3631,7.091796875,113,39.0,0
3632,7.09375,113,51.0,0
3633,7.095703125,113,50.0,0
3634,7.09765625,113,28.0,0
3635,7.099609375,113,7.0,0
3636,7.1015625,113,-5.0,0
3637,7.103515625,113,-12.0,0
3638,7.10546875,113,0.0,0
3639,7.107421875,113,28.0,0
3640,7.109375,113,67.0,0
3641,7.111328125,113,76.0,0
3642,7.11328125,113,64.0,0
3643,7.115234375,113,49.0,0
3644,7.1171875,113,43.0,0
3645,7.119140625,113,45.0,0
3646,7.12109375,113,54.0,0
3647,7.123046875,113,58.0,0
3648,7.125,114,56.0,0
3649,7.126953125,114,44.0,0
3650,7.12890625,114,40.0,0
3651,7.130859375,114,39.0,0
3652,7.1328125,114,43.0,0
3653,7.134765625,114,57.0,0
3654,7.13671875,114,74.0,0
3655,7.138671875,114,74.0,0
3656,7.140625,114,60.0,0
3657,7.142578125,114,60.0,0
3658,7.14453125,114,68.0,0
3659,7.146484375,114,72.0,0
3660,7.1484375,114,89.0,0
3661,7.150390625,114,107.0,0
3662,7.15234375,114,123.0,0
3663,7.154296875,114,134.0,0
3664,7.15625,114,124.0,0
3665,7.158203125,114,106.0,0
3666,7.16015625,114,86.0,0
3667,7.162109375,114,80.0,0
3668,7.1640625,114,71.0,0
3669,7.166015625,114,51.0,0
3670,7.16796875,114,35.0,0
3671,7.169921875,114,35.0,0
3672,7.171875,114,51.0,0
3673,7.173828125,114,57.0,0
3674,7.17578125,114,57.0,0
3675,7.177734375,114,61.0,0
3676,7.1796875,114,70.0,0
3677,7.181640625,114,80.0,0
3678,7.18359375,114,71.0,0
3679,7.185546875,114,60.0,0
3680,7.1875,115,54.0,0
3681,7.189453125,115,52.0,0
3682,7.19140625,115,60.0,0
3683,7.193359375,115,76.0,0
3684,7.1953125,115,84.0,0
3685,7.197265625,115,84.0,0
3686,7.19921875,115,86.0,0
3687,7.201171875,115,73.0,0
3688,7.203125,115,64.0,0
3689,7.205078125,115,58.0,0
3690,7.20703125,115,45.0,0
3691,7.208984375,115,36.0,0
3692,7.2109375,115,41.0,0
3693,7.212890625,115,67.0,0
3694,7.21484375,115,98.0,0
3695,7.216796875,115,107.0,0
3696,7.21875,115,101.0,0
3697,7.220703125,115,89.0,0
3698,7.22265625,115,90.0,0
3699,7.224609375,115,90.0,0
3700,7.2265625,115,72.0,0
3701,7.228515625,115,60.0,0
3702,7.23046875,115,60.0,0
3703,7.232421875,115,42.0,0
3704,7.234375,115,19.0,0
3705,7.236328125,115,25.0,0
3706,7.23828125,115,44.0,0
3707,7.240234375,115,59.0,0
3708,7.2421875,115,59.0,0
3709,7.244140625,115,36.0,0
3710,7.24609375,115,13.0,0
3711,7.248046875,115,23.0,0
3712,7.25,116,39.0,0
3713,7.251953125,116,48.0,0
3714,7.25390625,116,44.0,0
3715,7.255859375,116,37.0,0
3716,7.2578125,116,38.0,0
3717,7.259765625,116,50.0,0
3718,7.26171875,116,58.0,0
3719,7.263671875,116,61.0,0
3720,7.265625,116,58.0,0
3721,7.267578125,116,59.0,0
3722,7.26953125,116,56.0,0
3723,7.271484375,116,53.0,0
3724,7.2734375,116,51.0,0
3725,7.275390625,116,48.0,0
3726,7.27734375,116,42.0,0
3727,7.279296875,116,28.0,0
3728,7.28125,116,20.0,0
3729,7.283203125,116,26.0,0
3730,7.28515625,116,48.0,0
3731,7.287109375,116,64.0,0
3732,7.2890625,116,44.0,0
3733,7.291015625,116,24.0,0
3734,7.29296875,116,33.0,0
3735,7.294921875,116,52.0,0
3736,7.296875,116,57.0,0
3737,7.298828125,116,45.0,0
3738,7.30078125,116,34.0,0
3739,7.302734375,116,27.0,0
3740,7.3046875,116,38.0,0
3741,7.306640625,116,52.0,0
3742,7.30859375,116,67.0,0
3743,7.310546875,116,77.0,0
3744,7.3125,117,80.0,0
3745,7.314453125,117,73.0,0
3746,7.31640625,117,73.0,0
3747,7.318359375,117,85.0,0
3748,7.3203125,117,88.0,0
3749,7.322265625,117,80.0,0
3750,7.32421875,117,74.0,0
3751,7.326171875,117,64.0,0
3752,7.328125,117,51.0,0
3753,7.330078125,117,52.0,0
3754,7.33203125,117,53.0,0
3755,7.333984375,117,43.0,0
3756,7.3359375,117,32.0,0
3757,7.337890625,117,23.0,0
3758,7.33984375,117,21.0,0
3759,7.341796875,117,20.0,0
3760,7.34375,117,1.0,0
3761,7.345703125,117,-27.0,0
3762,7.34765625,117,-42.0,0
3763,7.349609375,117,-40.0,0
3764,7.3515625,117,-37.0,0
3765,7.353515625,117,-28.0,0
3766,7.35546875,117,-9.0,0
3767,7.357421875,117,-8.0,0
3768,7.359375,117,-26.0,0
3769,7.361328125,117,-39.0,0
3770,7.36328125,117,-35.0,0
3771,7.365234375,117,-26.0,0
3772,7.3671875,117,-25.0,0
3773,7.369140625,117,-29.0,0
3774,7.37109375,117,-19.0,0
3775,7.373046875,117,2.0,0
3776,7.375,118,17.0,0
3777,7.376953125,118,80.0,33552
3778,7.37890625,118,82.0,0
3779,7.380859375,118,58.0,0
3780,7.3828125,118,42.0,0
3781,7.384765625,118,36.0,0
3782,7.38671875,118,24.0,0
3783,7.388671875,118,11.0,0
3784,7.390625,118,16.0,0
3785,7.392578125,118,20.0,0
3786,7.39453125,118,20.0,0
3787,7.396484375,118,20.0,0
3788,7.3984375,118,24.0,0
3789,7.400390625,118,40.0,0
3790,7.40234375,118,55.0,0
3791,7.404296875,118,51.0,0
3792,7.40625,118,41.0,0
3793,7.408203125,118,42.0,0
3794,7.41015625,118,41.0,0
3795,7.412109375,118,53.0,0
3796,7.4140625,118,59.0,0
3797,7.416015625,118,60.0,0
3798,7.41796875,118,67.0,0
3799,7.419921875,118,80.0,0
3800,7.421875,118,91.0,0
3801,7.423828125,118,97.0,0
3802,7.42578125,118,88.0,0
3803,7.427734375,118,81.0,0
3804,7.4296875,118,68.0,0
3805,7.431640625,118,55.0,0
3806,7.43359375,118,39.0,0
3807,7.435546875,118,24.0,0
3808,7.4375,119,10.0,0
3809,7.439453125,119,5.0,0
3810,7.44140625,119,11.0,0
3811,7.443359375,119,32.0,0
3812,7.4453125,119,44.0,0
3813,7.447265625,119,44.0,0
3814,7.44921875,119,34.0,0
3815,7.451171875,119,52.0,0
3816,7.453125,119,82.0,0
3817,7.455078125,119,81.0,0
3818,7.45703125,119,59.0,0
3819,7.458984375,119,53.0,0
3820,7.4609375,119,58.0,0
3821,7.462890625,119,59.0,0
3822,7.46484375,119,67.0,0
3823,7.466796875,119,73.0,0
3824,7.46875,119,69.0,0
3825,7.470703125,119,67.0,0
3826,7.47265625,119,60.0,0
3827,7.474609375,119,42.0,0
3828,7.4765625,119,38.0,0
3829,7.478515625,119,54.0,0
3830,7.48046875,119,70.0,0
3831,7.482421875,119,60.0,0
3832,7.484375,119,38.0,0
3833,7.486328125,119,11.0,0
3834,7.48828125,119,0.0,0
3835,7.490234375,119,5.0,0
3836,7.4921875,119,22.0,0
3837,7.494140625,119,23.0,0
3838,7.49609375,119,8.0,0
3839,7.498046875,119,-8.0,0
3840,7.5,120,-23.0,0
3841,7.501953125,120,-42.0,0
3842,7.50390625,120,-55.0,0
3843,7.505859375,120,-53.0,0
3844,7.5078125,120,-50.0,0
3845,7.509765625,120,-52.0,0
3846,7.51171875,120,-53.0,0
3847,7.513671875,120,-49.0,0
3848,7.515625,120,-44.0,0
3849,7.517578125,120,-41.0,0
3850,7.51953125,120,-28.0,0
3851,7.521484375,120,-23.0,0
3852,7.5234375,120,-20.0,0
3853,7.525390625,120,-26.0,0
3854,7.52734375,120,-38.0,0
3855,7.529296875,120,-21.0,0
3856,7.53125,120,10.0,0
3857,7.533203125,120,20.0,0
3858,7.53515625,120,5.0,0
3859,7.537109375,120,-20.0,0
3860,7.5390625,120,-25.0,0
3861,7.541015625,120,-13.0,0
3862,7.54296875,120,3.0,0
3863,7.544921875,120,21.0,0
3864,7.546875,120,16.0,0
3865,7.548828125,120,-7.0,0
3866,7.55078125,120,-7.0,0
3867,7.552734375,120,26.0,0
3868,7.5546875,120,61.0,0
3869,7.556640625,120,64.0,0
3870,7.55859375,120,44.0,0
3871,7.560546875,120,41.0,0
3872,7.5625,121,55.0,0
3873,7.564453125,121,42.0,0
3874,7.56640625,121,18.0,0
3875,7.568359375,121,4.0,0
3876,7.5703125,121,3.0,0
3877,7.572265625,121,-5.0,0
3878,7.57421875,121,-8.0,0
3879,7.576171875,121,10.0,0
3880,7.578125,121,52.0,0
3881,7.580078125,121,76.0,0
3882,7.58203125,121,76.0,0
3883,7.583984375,121,92.0,0
3884,7.5859375,121,118.0,0
3885,7.587890625,121,120.0,0
3886,7.58984375,121,105.0,0
3887,7.591796875,121,88.0,0
3888,7.59375,121,72.0,0
3889,7.595703125,121,60.0,0
3890,7.59765625,121,60.0,0
3891,7.599609375,121,73.0,0
3892,7.6015625,121,98.0,0
3893,7.603515625,121,122.0,0
3894,7.60546875,121,130.0,0
3895,7.607421875,121,117.0,0
3896,7.609375,121,88.0,0
3897,7.611328125,121,71.0,0
3898,7.61328125,121,82.0,0
3899,7.615234375,121,102.0,0
3900,7.6171875,121,99.0,0
3901,7.619140625,121,75.0,0
3902,7.62109375,121,73.0,0
3903,7.623046875,121,82.0,0
3904,7.625,122,91.0,0
3905,7.626953125,122,92.0,0
3906,7.62890625,122,75.0,0
3907,7.630859375,122,65.0,0
3908,7.6328125,122,68.0,0
3909,7.634765625,122,61.0,0
3910,7.63671875,122,41.0,0
3911,7.638671875,122,27.0,0
3912,7.640625,122,34.0,0
3913,7.642578125,122,56.0,0
3914,7.64453125,122,73.0,0
3915,7.646484375,122,61.0,0
3916,7.6484375,122,41.0,0
3917,7.650390625,122,32.0,0
3918,7.65234375,122,34.0,0
3919,7.654296875,122,49.0,0
3920,7.65625,122,61.0,0
3921,7.658203125,122,60.0,0
3922,7.66015625,122,40.0,0
3923,7.662109375,122,23.0,0
3924,7.6640625,122,19.0,0
3925,7.666015625,122,13.0,0
3926,7.66796875,122,4.0,0
3927,7.669921875,122,-8.0,0
3928,7.671875,122,-23.0,0
3929,7.673828125,122,-40.0,0
3930,7.67578125,122,-45.0,0
3931,7.677734375,122,-38.0,0
3932,7.6796875,122,-27.0,0
3933,7.681640625,122,-35.0,0
3934,7.68359375,122,-45.0,0
3935,7.685546875,122,-50.0,0
3936,7.6875,123,-46.0,0
3937,7.689453125,123,-46.0,0
3938,7.69140625,123,-44.0,0
3939,7.693359375,123,-35.0,0
3940,7.6953125,123,-30.0,0
3941,7.697265625,123,-37.0,0
3942,7.69921875,123,-33.0,0
3943,7.701171875,123,-17.0,0
3944,7.703125,123,-5.0,0
3945,7.705078125,123,-12.0,0
3946,7.70703125,123,-21.0,0
3947,7.708984375,123,-13.0,0
3948,7.7109375,123,-8.0,0
3949,7.712890625,123,-5.0,0
3950,7.71484375,123,-4.0,0
3951,7.716796875,123,-2.0,0
3952,7.71875,123,2.0,0
3953,7.720703125,123,-2.0,0
3954,7.72265625,123,6.0,0
3955,7.724609375,123,32.0,0
3956,7.7265625,123,55.0,0
3957,7.728515625,123,66.0,0
3958,7.73046875,123,53.0,0
3959,7.732421875,123,36.0,0
3960,7.734375,123,42.0,0
3961,7.736328125,123,68.0,0
3962,7.73828125,123,81.0,0
3963,7.740234375,123,86.0,0
3964,7.7421875,123,83.0,0
3965,7.744140625,123,87.0,0
3966,7.74609375,123,92.0,0
3967,7.748046875,123,92.0,0
3968,7.75,124,97.0,0
3969,7.751953125,124,107.0,0
3970,7.75390625,124,124.0,0
3971,7.755859375,124,134.0,0
3972,7.7578125,124,133.0,0
3973,7.759765625,124,122.0,0
3974,7.76171875,124,119.0,0
3975,7.763671875,124,131.0,0
3976,7.765625,124,148.0,0
3977,7.767578125,124,140.0,0
3978,7.76953125,124,116.0,0
3979,7.771484375,124,106.0,0
3980,7.7734375,124,113.0,0
3981,7.775390625,124,113.0,0
3982,7.77734375,124,93.0,0
3983,7.779296875,124,82.0,0
3984,7.78125,124,84.0,0
3985,7.783203125,124,90.0,0
3986,7.78515625,124,100.0,0
3987,7.787109375,124,100.0,0
3988,7.7890625,124,85.0,0
3989,7.791015625,124,64.0,0
3990,7.79296875,124,43.0,0
3991,7.794921875,124,50.0,0
3992,7.796875,124,65.0,0
3993,7.798828125,124,75.0,0
3994,7.80078125,124,76.0,0
3995,7.802734375,124,60.0,0
3996,7.8046875,124,61.0,0
3997,7.806640625,124,91.0,0
3998,7.80859375,124,101.0,0
3999,7.810546875,124,87.0,0
4000,7.8125,125,83.0,0
4001,7.814453125,125,83.0,0
4002,7.81640625,125,81.0,0
4003,7.818359375,125,72.0,0
4004,7.8203125,125,75.0,0
4005,7.822265625,125,91.0,0
4006,7.82421875,125,100.0,0
4007,7.826171875,125,100.0,0
4008,7.828125,125,99.0,0
4009,7.830078125,125,98.0,0
4010,7.83203125,125,103.0,0
4011,7.833984375,125,108.0,0
4012,7.8359375,125,102.0,0
4013,7.837890625,125,97.0,0
4014,7.83984375,125,101.0,0
4015,7.841796875,125,97.0,0
4016,7.84375,125,89.0,0
4017,7.845703125,125,104.0,0
4018,7.84765625,125,120.0,0
4019,7.849609375,125,121.0,0
4020,7.8515625,125,103.0,0
4021,7.853515625,125,84.0,0
4022,7.85546875,125,76.0,0
4023,7.857421875,125,68.0,0
4024,7.859375,125,54.0,0
4025,7.861328125,125,57.0,0
4026,7.86328125,125,65.0,0
4027,7.865234375,125,65.0,0
4028,7.8671875,125,54.0,0
4029,7.869140625,125,43.0,0
4030,7.87109375,125,50.0,0
4031,7.873046875,125,57.0,0
4032,7.875,126,65.0,0
4033,7.876953125,126,55.0,0
4034,7.87890625,126,38.0,0
4035,7.880859375,126,37.0,0
4036,7.8828125,126,33.0,0
4037,7.884765625,126,23.0,0
4038,7.88671875,126,23.0,0
4039,7.888671875,126,25.0,0
4040,7.890625,126,26.0,0
4041,7.892578125,126,23.0,0
4042,7.89453125,126,16.0,0
4043,7.896484375,126,20.0,0
4044,7.8984375,126,34.0,0
4045,7.900390625,126,37.0,0
4046,7.90234375,126,36.0,0
4047,7.904296875,126,53.0,0
4048,7.90625,126,68.0,0
4049,7.908203125,126,69.0,0
4050,7.91015625,126,66.0,0
4051,7.912109375,126,65.0,0
4052,7.9140625,126,60.0,0
4053,7.916015625,126,51.0,0
4054,7.91796875,126,33.0,0
4055,7.919921875,126,26.0,0
4056,7.921875,126,34.0,0
4057,7.923828125,126,21.0,0
4058,7.92578125,126,6.0,0
4059,7.927734375,126,5.0,0
4060,7.9296875,126,9.0,0
4061,7.931640625,126,11.0,0
4062,7.93359375,126,1.0,0
4063,7.935546875,126,-19.0,0
4064,7.9375,127,-34.0,0
4065,7.939453125,127,-29.0,0
4066,7.94140625,127,-19.0,0
4067,7.943359375,127,-1.0,0
4068,7.9453125,127,23.0,0
4069,7.947265625,127,39.0,0
4070,7.94921875,127,38.0,0
4071,7.951171875,127,38.0,0
4072,7.953125,127,54.0,0
4073,7.955078125,127,76.0,0
4074,7.95703125,127,74.0,0
4075,7.958984375,127,68.0,0
4076,7.9609375,127,76.0,0
4077,7.962890625,127,81.0,0
4078,7.96484375,127,55.0,0
4079,7.966796875,127,20.0,0
4080,7.96875,127,3.0,0
4081,7.970703125,127,9.0,0
4082,7.97265625,127,29.0,0
4083,7.974609375,127,42.0,0
4084,7.9765625,127,54.0,0
4085,7.978515625,127,54.0,0
4086,7.98046875,127,39.0,0
4087,7.982421875,127,32.0,0
4088,7.984375,127,34.0,0
4089,7.986328125,127,37.0,0
4090,7.98828125,127,44.0,0
4091,7.990234375,127,59.0,0
4092,7.9921875,127,64.0,0
4093,7.994140625,127,53.0,0
4094,7.99609375,127,45.0,0
4095,7.998046875,127,33.0,0
4096,8.0,128,17.0,0
4097,8.001953125,128,6.0,0
4098,8.00390625,128,-7.0,0
4099,8.005859375,128,-25.0,0
4100,8.0078125,128,-41.0,0
4101,8.009765625,128,-34.0,0
4102,8.01171875,128,-14.0,0
4103,8.013671875,128,0.0,0
4104,8.015625,128,-4.0,0
4105,8.017578125,128,6.0,0
4106,8.01953125,128,43.0,0
4107,8.021484375,128,68.0,0
4108,8.0234375,128,73.0,0
4109,8.025390625,128,68.0,0
4110,8.02734375,128,57.0,0
4111,8.029296875,128,42.0,0
4112,8.03125,128,40.0,0
4113,8.033203125,128,58.0,0
4114,8.03515625,128,64.0,0
4115,8.037109375,128,67.0,0
4116,8.0390625,128,80.0,0
4117,8.041015625,128,83.0,0
4118,8.04296875,128,67.0,0
4119,8.044921875,128,55.0,0
4120,8.046875,128,70.0,0
4121,8.048828125,128,69.0,0
4122,8.05078125,128,53.0,0
4123,8.052734375,128,41.0,0
4124,8.0546875,128,27.0,0
4125,8.056640625,128,23.0,0
4126,8.05859375,128,35.0,0
4127,8.060546875,128,45.0,0
4128,8.0625,129,49.0,0
4129,8.064453125,129,44.0,0
4130,8.06640625,129,56.0,0
4131,8.068359375,129,71.0,0
4132,8.0703125,129,80.0,0
4133,8.072265625,129,73.0,0
4134,8.07421875,129,52.0,0
4135,8.076171875,129,27.0,0
4136,8.078125,129,20.0,0
4137,8.080078125,129,26.0,0
4138,8.08203125,129,26.0,0
4139,8.083984375,129,27.0,0
4140,8.0859375,129,34.0,0
4141,8.087890625,129,41.0,0
4142,8.08984375,129,52.0,0
4143,8.091796875,129,53.0,0
4144,8.09375,129,38.0,0
4145,8.095703125,129,20.0,0
4146,8.09765625,129,16.0,0
4147,8.099609375,129,20.0,0
4148,8.1015625,129,23.0,0
4149,8.103515625,129,33.0,0
4150,8.10546875,129,36.0,0
4151,8.107421875,129,41.0,0
4152,8.109375,129,42.0,0
4153,8.111328125,129,23.0,0
4154,8.11328125,129,21.0,0
4155,8.115234375,129,32.0,0
4156,8.1171875,129,32.0,0
4157,8.119140625,129,26.0,0
4158,8.12109375,129,36.0,0
4159,8.123046875,129,43.0,0
4160,8.125,130,40.0,0
4161,8.126953125,130,35.0,0
4162,8.12890625,130,29.0,0
4163,8.130859375,130,27.0,0
4164,8.1328125,130,32.0,0
4165,8.134765625,130,33.0,0
4166,8.13671875,130,22.0,0
4167,8.138671875,130,13.0,0
4168,8.140625,130,22.0,0
4169,8.142578125,130,33.0,0
4170,8.14453125,130,36.0,0
4171,8.146484375,130,23.0,0
4172,8.1484375,130,7.0,0
4173,8.150390625,130,18.0,0
4174,8.15234375,130,45.0,0
4175,8.154296875,130,55.0,0
4176,8.15625,130,61.0,0
4177,8.158203125,130,70.0,0
4178,8.16015625,130,59.0,0
4179,8.162109375,130,41.0,0
4180,8.1640625,130,34.0,0
4181,8.166015625,130,35.0,0
4182,8.16796875,130,24.0,0
4183,8.169921875,130,9.0,0
4184,8.171875,130,9.0,0
4185,8.173828125,130,29.0,0
4186,8.17578125,130,38.0,0
4187,8.177734375,130,37.0,0
4188,8.1796875,130,54.0,0
4189,8.181640625,130,68.0,0
4190,8.18359375,130,66.0,0
4191,8.185546875,130,56.0,0
4192,8.1875,131,44.0,0
4193,8.189453125,131,37.0,0
4194,8.19140625,131,34.0,0
4195,8.193359375,131,34.0,0
4196,8.1953125,131,41.0,0
4197,8.197265625,131,48.0,0
4198,8.19921875,131,54.0,0
4199,8.201171875,131,64.0,0
4200,8.203125,131,56.0,0
4201,8.205078125,131,52.0,0
4202,8.20703125,131,59.0,0
4203,8.208984375,131,66.0,0
4204,8.2109375,131,60.0,0
4205,8.212890625,131,56.0,0
4206,8.21484375,131,49.0,0
4207,8.216796875,131,39.0,0
4208,8.21875,131,42.0,0
4209,8.220703125,131,45.0,0
4210,8.22265625,131,44.0,0
4211,8.224609375,131,42.0,0
4212,8.2265625,131,28.0,0
4213,8.228515625,131,29.0,0
4214,8.23046875,131,40.0,0
4215,8.232421875,131,42.0,0
4216,8.234375,131,28.0,0
4217,8.236328125,131,27.0,0
4218,8.23828125,131,28.0,0
4219,8.240234375,131,21.0,0
4220,8.2421875,131,20.0,0
4221,8.244140625,131,20.0,0
4222,8.24609375,131,19.0,0
4223,8.248046875,131,9.0,0
4224,8.25,132,4.0,0
4225,8.251953125,132,6.0,0
4226,8.25390625,132,11.0,0
4227,8.255859375,132,10.0,0
4228,8.2578125,132,9.0,0
4229,8.259765625,132,12.0,0
4230,8.26171875,132,29.0,0
4231,8.263671875,132,52.0,0
4232,8.265625,132,56.0,0
4233,8.267578125,132,60.0,0
4234,8.26953125,132,67.0,0
4235,8.271484375,132,64.0,0
4236,8.2734375,132,42.0,0
4237,8.275390625,132,24.0,0
4238,8.27734375,132,34.0,0
4239,8.279296875,132,50.0,0
4240,8.28125,132,40.0,0
4241,8.283203125,132,22.0,0
4242,8.28515625,132,20.0,0
4243,8.287109375,132,29.0,0
4244,8.2890625,132,44.0,0
4245,8.291015625,132,59.0,0
4246,8.29296875,132,50.0,0
4247,8.294921875,132,24.0,0
4248,8.296875,132,17.0,0
4249,8.298828125,132,28.0,0
4250,8.30078125,132,40.0,0
4251,8.302734375,132,34.0,0
4252,8.3046875,132,22.0,0
4253,8.306640625,132,6.0,0
4254,8.30859375,132,-4.0,0
4255,8.310546875,132,-12.0,0
4256,8.3125,133,-22.0,0
4257,8.314453125,133,-33.0,0
4258,8.31640625,133,-30.0,0
4259,8.318359375,133,-28.0,0
4260,8.3203125,133,-37.0,0
4261,8.322265625,133,-49.0,0
4262,8.32421875,133,-56.0,0
4263,8.326171875,133,-57.0,0
4264,8.328125,133,-59.0,0
4265,8.330078125,133,-59.0,0
4266,8.33203125,133,-57.0,0
4267,8.333984375,133,-58.0,0
4268,8.3359375,133,-52.0,0
4269,8.337890625,133,-29.0,0
4270,8.33984375,133,-13.0,0
4271,8.341796875,133,-8.0,0
4272,8.34375,133,-11.0,0
4273,8.345703125,133,-9.0,0
4274,8.34765625,133,8.0,0
4275,8.349609375,133,18.0,0
4276,8.3515625,133,5.0,0
4277,8.353515625,133,-8.0,0
4278,8.35546875,133,-1.0,0
4279,8.357421875,133,21.0,0
4280,8.359375,133,37.0,0
4281,8.361328125,133,36.0,0
4282,8.36328125,133,36.0,0
4283,8.365234375,133,52.0,0
4284,8.3671875,133,64.0,0
4285,8.369140625,133,67.0,0
4286,8.37109375,133,61.0,0
4287,8.373046875,133,59.0,0
4288,8.375,134,59.0,0
4289,8.376953125,134,58.0,0
4290,8.37890625,134,52.0,0
4291,8.380859375,134,45.0,0
4292,8.3828125,134,43.0,0
4293,8.384765625,134,39.0,0
4294,8.38671875,134,42.0,0
4295,8.388671875,134,57.0,0
4296,8.390625,134,57.0,0
4297,8.392578125,134,52.0,0
4298,8.39453125,134,51.0,0
4299,8.396484375,134,45.0,0
4300,8.3984375,134,34.0,0
4301,8.400390625,134,38.0,0
4302,8.40234375,134,44.0,0
4303,8.404296875,134,41.0,0
4304,8.40625,134,36.0,0
4305,8.408203125,134,41.0,0
4306,8.41015625,134,48.0,0
4307,8.412109375,134,45.0,0
4308,8.4140625,134,48.0,0
4309,8.416015625,134,49.0,0
4310,8.41796875,134,42.0,0
4311,8.419921875,134,28.0,0
4312,8.421875,134,26.0,0
4313,8.423828125,134,32.0,0
4314,8.42578125,134,33.0,0
4315,8.427734375,134,33.0,0
4316,8.4296875,134,22.0,0
4317,8.431640625,134,17.0,0
4318,8.43359375,134,52.0,0
4319,8.435546875,134,84.0,0
4320,8.4375,135,86.0,0
4321,8.439453125,135,86.0,0
4322,8.44140625,135,72.0,0
4323,8.443359375,135,57.0,0
4324,8.4453125,135,64.0,0
4325,8.447265625,135,59.0,0
4326,8.44921875,135,37.0,0
4327,8.451171875,135,9.0,0
4328,8.453125,135,8.0,0
4329,8.455078125,135,13.0,0
4330,8.45703125,135,17.0,0
4331,8.458984375,135,10.0,0
4332,8.4609375,135,1.0,0
4333,8.462890625,135,0.0,0
4334,8.46484375,135,8.0,0
4335,8.466796875,135,21.0,0
4336,8.46875,135,20.0,0
4337,8.470703125,135,27.0,0
4338,8.47265625,135,50.0,0
4339,8.474609375,135,61.0,0
4340,8.4765625,135,74.0,0
4341,8.478515625,135,81.0,0
4342,8.48046875,135,75.0,0
4343,8.482421875,135,75.0,0
4344,8.484375,135,82.0,0
4345,8.486328125,135,97.0,0
4346,8.48828125,135,101.0,0
4347,8.490234375,135,82.0,0
4348,8.4921875,135,64.0,0
4349,8.494140625,135,61.0,0
4350,8.49609375,135,75.0,0
4351,8.498046875,135,96.0,0
4352,8.5,136,92.0,0
4353,8.501953125,136,90.0,0
4354,8.50390625,136,93.0,0
4355,8.505859375,136,68.0,0
4356,8.5078125,136,34.0,0
4357,8.509765625,136,22.0,0
4358,8.51171875,136,34.0,0
4359,8.513671875,136,33.0,0
4360,8.515625,136,19.0,0
4361,8.517578125,136,19.0,0
4362,8.51953125,136,32.0,0
4363,8.521484375,136,39.0,0
4364,8.5234375,136,52.0,0
4365,8.525390625,136,56.0,0
4366,8.52734375,136,54.0,0
4367,8.529296875,136,74.0,0
4368,8.53125,136,72.0,0
4369,8.533203125,136,53.0,0
4370,8.53515625,136,68.0,0
4371,8.537109375,136,99.0,0
4372,8.5390625,136,118.0,0
4373,8.541015625,136,107.0,0
4374,8.54296875,136,99.0,0
4375,8.544921875,136,101.0,0
4376,8.546875,136,97.0,0
4377,8.548828125,136,96.0,0
4378,8.55078125,136,98.0,0
4379,8.552734375,136,87.0,0
4380,8.5546875,136,82.0,0
4381,8.556640625,136,93.0,0
4382,8.55859375,136,90.0,0
4383,8.560546875,136,89.0,0
4384,8.5625,137,90.0,0
4385,8.564453125,137,85.0,0
4386,8.56640625,137,88.0,0
4387,8.568359375,137,84.0,0
4388,8.5703125,137,69.0,0
4389,8.572265625,137,69.0,0
4390,8.57421875,137,88.0,0
4391,8.576171875,137,104.0,0
4392,8.578125,137,105.0,0
4393,8.580078125,137,98.0,0
4394,8.58203125,137,105.0,0
4395,8.583984375,137,116.0,0
4396,8.5859375,137,108.0,0
4397,8.587890625,137,91.0,0
4398,8.58984375,137,76.0,0
4399,8.591796875,137,68.0,0
4400,8.59375,137,61.0,0
4401,8.595703125,137,48.0,0
4402,8.59765625,137,24.0,0
4403,8.599609375,137,11.0,0
4404,8.6015625,137,19.0,0
4405,8.603515625,137,49.0,0
4406,8.60546875,137,83.0,0
4407,8.607421875,137,82.0,0
4408,8.609375,137,64.0,0
4409,8.611328125,137,51.0,0
4410,8.61328125,137,42.0,0
4411,8.615234375,137,41.0,0
4412,8.6171875,137,39.0,0
4413,8.619140625,137,22.0,0
4414,8.62109375,137,-8.0,0
4415,8.623046875,137,-29.0,0
4416,8.625,138,-38.0,0
4417,8.626953125,138,-36.0,0
4418,8.62890625,138,-20.0,0
4419,8.630859375,138,-10.0,0
4420,8.6328125,138,-3.0,0
4421,8.634765625,138,6.0,0
4422,8.63671875,138,21.0,0
4423,8.638671875,138,35.0,0
4424,8.640625,138,39.0,0
4425,8.642578125,138,44.0,0
4426,8.64453125,138,68.0,0
4427,8.646484375,138,80.0,0
4428,8.6484375,138,57.0,0
4429,8.650390625,138,44.0,0
4430,8.65234375,138,49.0,0
4431,8.654296875,138,68.0,0
4432,8.65625,138,96.0,0
4433,8.658203125,138,91.0,0
4434,8.66015625,138,70.0,0
4435,8.662109375,138,50.0,0
4436,8.6640625,138,36.0,0
4437,8.666015625,138,48.0,0
4438,8.66796875,138,66.0,0
4439,8.669921875,138,71.0,0
4440,8.671875,138,67.0,0
4441,8.673828125,138,60.0,0
4442,8.67578125,138,70.0,0
4443,8.677734375,138,76.0,0
4444,8.6796875,138,71.0,0
4445,8.681640625,138,69.0,0
4446,8.68359375,138,74.0,0
4447,8.685546875,138,77.0,0
4448,8.6875,139,76.0,33552:33552
4449,8.689453125,139,69.0,0
4450,8.69140625,139,57.0,0
4451,8.693359375,139,53.0,0
4452,8.6953125,139,61.0,0
4453,8.697265625,139,73.0,0
4454,8.69921875,139,89.0,0
4455,8.701171875,139,103.0,0
4456,8.703125,139,102.0,0
4457,8.705078125,139,91.0,0
4458,8.70703125,139,82.0,0
4459,8.708984375,139,76.0,0
4460,8.7109375,139,69.0,0
4461,8.712890625,139,61.0,0
4462,8.71484375,139,66.0,0
4463,8.716796875,139,70.0,0
4464,8.71875,139,75.0,0
4465,8.720703125,139,91.0,0
4466,8.72265625,139,102.0,0
4467,8.724609375,139,97.0,0
4468,8.7265625,139,88.0,0
4469,8.728515625,139,89.0,0
4470,8.73046875,139,92.0,0
4471,8.732421875,139,92.0,0
4472,8.734375,139,83.0,0
4473,8.736328125,139,65.0,0
4474,8.73828125,139,56.0,0
4475,8.740234375,139,50.0,0
4476,8.7421875,139,55.0,0
4477,8.744140625,139,74.0,0
4478,8.74609375,139,82.0,0
4479,8.748046875,139,75.0,0
4480,8.75,140,67.0,0
4481,8.751953125,140,71.0,0
4482,8.75390625,140,84.0,0
4483,8.755859375,140,90.0,0
4484,8.7578125,140,82.0,0
4485,8.759765625,140,59.0,0
4486,8.76171875,140,49.0,0
4487,8.763671875,140,37.0,0
4488,8.765625,140,12.0,0
4489,8.767578125,140,-8.0,0
4490,8.76953125,140,-9.0,0
4491,8.771484375,140,5.0,0
4492,8.7734375,140,17.0,0
4493,8.775390625,140,27.0,0
4494,8.77734375,140,28.0,0
4495,8.779296875,140,16.0,0
4496,8.78125,140,4.0,0
4497,8.783203125,140,2.0,0
4498,8.78515625,140,9.0,0
4499,8.787109375,140,12.0,0
4500,8.7890625,140,1.0,0
4501,8.791015625,140,-19.0,0
4502,8.79296875,140,-36.0,0
4503,8.794921875,140,-40.0,0
4504,8.796875,140,-40.0,0
4505,8.798828125,140,-38.0,0
4506,8.80078125,140,-54.0,0
4507,8.802734375,140,-82.0,0
4508,8.8046875,140,-90.0,0
4509,8.806640625,140,-85.0,0
4510,8.80859375,140,-87.0,0
4511,8.810546875,140,-97.0,0
4512,8.8125,141,-90.0,0
4513,8.814453125,141,-77.0,0
4514,8.81640625,141,-82.0,0
4515,8.818359375,141,-91.0,0
4516,8.8203125,141,-86.0,0
4517,8.822265625,141,-68.0,0
4518,8.82421875,141,-49.0,0
4519,8.826171875,141,-26.0,0
4520,8.828125,141,-18.0,0
4521,8.830078125,141,-19.0,0
4522,8.83203125,141,-22.0,0
4523,8.833984375,141,-27.0,0
4524,8.8359375,141,-17.0,0
4525,8.837890625,141,9.0,0
4526,8.83984375,141,27.0,0
4527,8.841796875,141,28.0,0
4528,8.84375,141,20.0,0
4529,8.845703125,141,8.0,0
4530,8.84765625,141,12.0,0
4531,8.849609375,141,27.0,0
4532,8.8515625,141,42.0,0
4533,8.853515625,141,53.0,0
4534,8.85546875,141,55.0,0
4535,8.857421875,141,54.0,0
4536,8.859375,141,50.0,0
4537,8.861328125,141,53.0,0
4538,8.86328125,141,55.0,0
4539,8.865234375,141,53.0,0
4540,8.8671875,141,57.0,0
4541,8.869140625,141,71.0,0
4542,8.87109375,141,80.0,0
4543,8.873046875,141,74.0,0
4544,8.875,142,64.0,0
4545,8.876953125,142,44.0,0
4546,8.87890625,142,35.0,0
4547,8.880859375,142,49.0,0
4548,8.8828125,142,68.0,0
4549,8.884765625,142,80.0,0
4550,8.88671875,142,82.0,0
4551,8.888671875,142,69.0,0
4552,8.890625,142,60.0,0
4553,8.892578125,142,54.0,0
4554,8.89453125,142,53.0,0
4555,8.896484375,142,51.0,0
4556,8.8984375,142,42.0,0
4557,8.900390625,142,41.0,0
4558,8.90234375,142,50.0,0
4559,8.904296875,142,65.0,0
4560,8.90625,142,72.0,0
4561,8.908203125,142,86.0,0
4562,8.91015625,142,90.0,0
4563,8.912109375,142,91.0,0
4564,8.9140625,142,91.0,0
4565,8.916015625,142,77.0,0
4566,8.91796875,142,53.0,0
4567,8.919921875,142,40.0,0
4568,8.921875,142,42.0,0
4569,8.923828125,142,44.0,0
4570,8.92578125,142,41.0,0
4571,8.927734375,142,43.0,0
4572,8.9296875,142,53.0,0
4573,8.931640625,142,56.0,0
4574,8.93359375,142,50.0,0
4575,8.935546875,142,35.0,0
4576,8.9375,143,13.0,0
4577,8.939453125,143,4.0,0
4578,8.94140625,143,7.0,0
4579,8.943359375,143,0.0,0
4580,8.9453125,143,-13.0,0
4581,8.947265625,143,-28.0,0
4582,8.94921875,143,-50.0,0
4583,8.951171875,143,-67.0,0
4584,8.953125,143,-77.0,0
4585,8.955078125,143,-76.0,0
4586,8.95703125,143,-65.0,0
4587,8.958984375,143,-58.0,0
4588,8.9609375,143,-65.0,0
4589,8.962890625,143,-55.0,0
4590,8.96484375,143,-51.0,0
4591,8.966796875,143,-56.0,0
4592,8.96875,143,-49.0,0
4593,8.970703125,143,-43.0,0
4594,8.97265625,143,-53.0,0
4595,8.974609375,143,-50.0,0
4596,8.9765625,143,-33.0,0
4597,8.978515625,143,-27.0,0
4598,8.98046875,143,-22.0,0
4599,8.982421875,143,-10.0,0
4600,8.984375,143,2.0,0
4601,8.986328125,143,7.0,0
4602,8.98828125,143,10.0,0
4603,8.990234375,143,28.0,0
4604,8.9921875,143,43.0,0
4605,8.994140625,143,64.0,0
4606,8.99609375,143,75.0,0
4607,8.998046875,143,75.0,0
4608,9.0,144,88.0,0
4609,9.001953125,144,91.0,0
4610,9.00390625,144,88.0,0
4611,9.005859375,144,88.0,0
4612,9.0078125,144,97.0,0
4613,9.009765625,144,92.0,0
4614,9.01171875,144,86.0,0
4615,9.013671875,144,85.0,0
4616,9.015625,144,93.0,0
4617,9.017578125,144,104.0,0
4618,9.01953125,144,103.0,0
4619,9.021484375,144,104.0,0
4620,9.0234375,144,101.0,0
4621,9.025390625,144,96.0,0
4622,9.02734375,144,89.0,0
4623,9.029296875,144,80.0,0
4624,9.03125,144,65.0,0
4625,9.033203125,144,52.0,0
4626,9.03515625,144,49.0,0
4627,9.037109375,144,58.0,0
4628,9.0390625,144,76.0,0
4629,9.041015625,144,87.0,0
4630,9.04296875,144,80.0,0
4631,9.044921875,144,70.0,0
4632,9.046875,144,73.0,0
4633,9.048828125,144,80.0,0
4634,9.05078125,144,80.0,0
4635,9.052734375,144,81.0,0
4636,9.0546875,144,74.0,0
4637,9.056640625,144,73.0,0
4638,9.05859375,144,83.0,0
4639,9.060546875,144,84.0,0
4640,9.0625,145,90.0,0
4641,9.064453125,145,104.0,0
4642,9.06640625,145,114.0,0
4643,9.068359375,145,116.0,0
4644,9.0703125,145,108.0,0
4645,9.072265625,145,96.0,0
4646,9.07421875,145,77.0,0
4647,9.076171875,145,64.0,0
4648,9.078125,145,55.0,0
4649,9.080078125,145,55.0,0
4650,9.08203125,145,75.0,0
4651,9.083984375,145,91.0,0
4652,9.0859375,145,76.0,0
4653,9.087890625,145,72.0,0
4654,9.08984375,145,106.0,0
4655,9.091796875,145,141.0,0
4656,9.09375,145,151.0,0
4657,9.095703125,145,144.0,0
4658,9.09765625,145,129.0,0
4659,9.099609375,145,124.0,0
4660,9.1015625,145,136.0,0
4661,9.103515625,145,137.0,0
4662,9.10546875,145,116.0,0
4663,9.107421875,145,98.0,0
4664,9.109375,145,92.0,0
4665,9.111328125,145,108.0,0
4666,9.11328125,145,130.0,0
4667,9.115234375,145,137.0,0
4668,9.1171875,145,133.0,0
4669,9.119140625,145,117.0,0
4670,9.12109375,145,122.0,0
4671,9.123046875,145,134.0,0
4672,9.125,146,136.0,0
4673,9.126953125,146,122.0,0
4674,9.12890625,146,98.0,0
4675,9.130859375,146,85.0,0
4676,9.1328125,146,87.0,0
4677,9.134765625,146,86.0,0
4678,9.13671875,146,86.0,0
4679,9.138671875,146,84.0,0
4680,9.140625,146,75.0,0
4681,9.142578125,146,65.0,0
4682,9.14453125,146,55.0,0
4683,9.146484375,146,57.0,0
4684,9.1484375,146,54.0,0
4685,9.150390625,146,44.0,0
4686,9.15234375,146,43.0,0
4687,9.154296875,146,40.0,0
4688,9.15625,146,40.0,0
4689,9.158203125,146,44.0,0
4690,9.16015625,146,38.0,0
4691,9.162109375,146,38.0,0
4692,9.1640625,146,43.0,0
4693,9.166015625,146,44.0,0
4694,9.16796875,146,33.0,0
4695,9.169921875,146,26.0,0
4696,9.171875,146,34.0,0
4697,9.173828125,146,54.0,0
4698,9.17578125,146,68.0,0
4699,9.177734375,146,55.0,0
4700,9.1796875,146,38.0,0
4701,9.181640625,146,27.0,0
4702,9.18359375,146,32.0,0
4703,9.185546875,146,42.0,0
4704,9.1875,147,51.0,0
4705,9.189453125,147,40.0,0
4706,9.19140625,147,33.0,0
4707,9.193359375,147,34.0,0
4708,9.1953125,147,42.0,0
4709,9.197265625,147,48.0,0
4710,9.19921875,147,40.0,0
4711,9.201171875,147,33.0,0
4712,9.203125,147,28.0,0
4713,9.205078125,147,34.0,0
4714,9.20703125,147,37.0,0
4715,9.208984375,147,39.0,0
4716,9.2109375,147,49.0,0
4717,9.212890625,147,54.0,0
4718,9.21484375,147,38.0,0
4719,9.216796875,147,19.0,0
4720,9.21875,147,10.0,0
4721,9.220703125,147,8.0,0
4722,9.22265625,147,11.0,0
4723,9.224609375,147,4.0,0
4724,9.2265625,147,-3.0,0
4725,9.228515625,147,-5.0,0
4726,9.23046875,147,-12.0,0
4727,9.232421875,147,-18.0,0
4728,9.234375,147,-9.0,0
4729,9.236328125,147,-10.0,0
4730,9.23828125,147,-12.0,0
4731,9.240234375,147,-8.0,0
4732,9.2421875,147,6.0,0
4733,9.244140625,147,18.0,0
4734,9.24609375,147,20.0,0
4735,9.248046875,147,33.0,0
4736,9.25,148,49.0,0
4737,9.251953125,148,67.0,0
4738,9.25390625,148,82.0,0
4739,9.255859375,148,89.0,0
4740,9.2578125,148,85.0,0
4741,9.259765625,148,76.0,0
4742,9.26171875,148,60.0,0
4743,9.263671875,148,57.0,0
4744,9.265625,148,67.0,0
4745,9.267578125,148,72.0,0
4746,9.26953125,148,76.0,0
4747,9.271484375,148,86.0,0
4748,9.2734375,148,82.0,0
4749,9.275390625,148,68.0,0
4750,9.27734375,148,67.0,0
4751,9.279296875,148,60.0,0
4752,9.28125,148,53.0,0
4753,9.283203125,148,44.0,0
4754,9.28515625,148,22.0,0
4755,9.287109375,148,-2.0,0
4756,9.2890625,148,-13.0,0
4757,9.291015625,148,-7.0,0
4758,9.29296875,148,13.0,0
4759,9.294921875,148,49.0,0
4760,9.296875,148,73.0,0
4761,9.298828125,148,70.0,0
4762,9.30078125,148,59.0,0
4763,9.302734375,148,59.0,0
4764,9.3046875,148,68.0,0
4765,9.306640625,148,74.0,0
4766,9.30859375,148,69.0,0
4767,9.310546875,148,48.0,0
4768,9.3125,149,20.0,0
4769,9.314453125,149,-4.0,0
4770,9.31640625,149,-11.0,0
4771,9.318359375,149,8.0,0
4772,9.3203125,149,28.0,0
4773,9.322265625,149,49.0,0
4774,9.32421875,149,73.0,0
4775,9.326171875,149,74.0,0
4776,9.328125,149,43.0,0
4777,9.330078125,149,10.0,0
4778,9.33203125,149,8.0,0
4779,9.333984375,149,17.0,0
4780,9.3359375,149,21.0,0
4781,9.337890625,149,36.0,0
4782,9.33984375,149,66.0,0
4783,9.341796875,149,68.0,0
4784,9.34375,149,40.0,0
4785,9.345703125,149,39.0,0
4786,9.34765625,149,64.0,0
4787,9.349609375,149,67.0,0
4788,9.3515625,149,54.0,0
4789,9.353515625,149,49.0,0
4790,9.35546875,149,45.0,0
4791,9.357421875,149,48.0,0
4792,9.359375,149,43.0,0
4793,9.361328125,149,26.0,0
4794,9.36328125,149,8.0,0
4795,9.365234375,149,3.0,0
4796,9.3671875,149,7.0,0
4797,9.369140625,149,6.0,0
4798,9.37109375,149,18.0,0
4799,9.373046875,149,23.0,0
4800,9.375,150,6.0,0
4801,9.376953125,150,-8.0,0
4802,9.37890625,150,-4.0,0
4803,9.380859375,150,3.0,0
4804,9.3828125,150,7.0,0
4805,9.384765625,150,23.0,0
4806,9.38671875,150,34.0,0
4807,9.388671875,150,24.0,0
4808,9.390625,150,26.0,0
4809,9.392578125,150,48.0,0
4810,9.39453125,150,51.0,0
4811,9.396484375,150,36.0,0
4812,9.3984375,150,52.0,0
4813,9.400390625,150,68.0,0
4814,9.40234375,150,51.0,0
4815,9.404296875,150,38.0,0
4816,9.40625,150,34.0,0
4817,9.408203125,150,35.0,0
4818,9.41015625,150,37.0,0
4819,9.412109375,150,40.0,0
4820,9.4140625,150,56.0,0
4821,9.416015625,150,75.0,0
4822,9.41796875,150,75.0,0
4823,9.419921875,150,57.0,0
4824,9.421875,150,40.0,0
4825,9.423828125,150,49.0,0
4826,9.42578125,150,69.0,0
4827,9.427734375,150,69.0,0
4828,9.4296875,150,57.0,0
4829,9.431640625,150,50.0,0
4830,9.43359375,150,43.0,0
4831,9.435546875,150,22.0,0
4832,9.4375,151,3.0,0
4833,9.439453125,151,7.0,0
4834,9.44140625,151,33.0,0
4835,9.443359375,151,45.0,0
4836,9.4453125,151,49.0,0
4837,9.447265625,151,65.0,0
4838,9.44921875,151,86.0,0
4839,9.451171875,151,82.0,0
4840,9.453125,151,53.0,0
4841,9.455078125,151,42.0,0
4842,9.45703125,151,40.0,0
4843,9.458984375,151,39.0,0
4844,9.4609375,151,52.0,0
4845,9.462890625,151,48.0,0
4846,9.46484375,151,25.0,0
4847,9.466796875,151,28.0,0
4848,9.46875,151,53.0,0
4849,9.470703125,151,68.0,0
4850,9.47265625,151,60.0,0
4851,9.474609375,151,43.0,0
4852,9.4765625,151,38.0,0
4853,9.478515625,151,34.0,0
4854,9.48046875,151,37.0,0
4855,9.482421875,151,58.0,0
4856,9.484375,151,91.0,0
4857,9.486328125,151,105.0,0
4858,9.48828125,151,98.0,0
4859,9.490234375,151,86.0,0
4860,9.4921875,151,83.0,0
4861,9.494140625,151,81.0,0
4862,9.49609375,151,73.0,0
4863,9.498046875,151,68.0,0
4864,9.5,152,55.0,0
4865,9.501953125,152,41.0,0
4866,9.50390625,152,49.0,0
4867,9.505859375,152,82.0,0
4868,9.5078125,152,80.0,0
4869,9.509765625,152,39.0,0
4870,9.51171875,152,25.0,0
4871,9.513671875,152,36.0,0
4872,9.515625,152,49.0,0
4873,9.517578125,152,38.0,0
4874,9.51953125,152,13.0,0
4875,9.521484375,152,-2.0,0
4876,9.5234375,152,-19.0,0
4877,9.525390625,152,-22.0,0
4878,9.52734375,152,-22.0,0
4879,9.529296875,152,-20.0,0
4880,9.53125,152,-5.0,0
4881,9.533203125,152,11.0,0
4882,9.53515625,152,12.0,0
4883,9.537109375,152,13.0,0
4884,9.5390625,152,26.0,0
4885,9.541015625,152,52.0,0
4886,9.54296875,152,53.0,0
4887,9.544921875,152,33.0,0
4888,9.546875,152,11.0,0
4889,9.548828125,152,12.0,0
4890,9.55078125,152,20.0,0
4891,9.552734375,152,26.0,0
4892,9.5546875,152,38.0,0
4893,9.556640625,152,55.0,0
4894,9.55859375,152,70.0,0
4895,9.560546875,152,85.0,0
4896,9.5625,153,81.0,0
4897,9.564453125,153,59.0,0
4898,9.56640625,153,59.0,0
4899,9.568359375,153,70.0,0
4900,9.5703125,153,55.0,0
4901,9.572265625,153,26.0,0
4902,9.57421875,153,9.0,0
4903,9.576171875,153,1.0,0
4904,9.578125,153,-3.0,0
4905,9.580078125,153,-7.0,0
4906,9.58203125,153,-5.0,0
4907,9.583984375,153,-5.0,0
4908,9.5859375,153,-25.0,0
4909,9.587890625,153,-24.0,0
4910,9.58984375,153,-12.0,0
4911,9.591796875,153,-38.0,0
4912,9.59375,153,-57.0,0
4913,9.595703125,153,-42.0,0
4914,9.59765625,153,-34.0,0
4915,9.599609375,153,-51.0,0
4916,9.6015625,153,-75.0,0
4917,9.603515625,153,-87.0,0
4918,9.60546875,153,-83.0,0
4919,9.607421875,153,-72.0,0
4920,9.609375,153,-61.0,0
4921,9.611328125,153,-52.0,0
4922,9.61328125,153,-34.0,0
4923,9.615234375,153,-38.0,0
4924,9.6171875,153,-52.0,0
4925,9.619140625,153,-53.0,0
4926,9.62109375,153,-46.0,0
4927,9.623046875,153,-44.0,0
4928,9.625,154,-29.0,0
4929,9.626953125,154,-30.0,0
4930,9.62890625,154,-33.0,0
4931,9.630859375,154,-36.0,0
4932,9.6328125,154,-38.0,0
4933,9.634765625,154,-50.0,0
4934,9.63671875,154,-50.0,0
4935,9.638671875,154,-38.0,0
4936,9.640625,154,-20.0,0
4937,9.642578125,154,-4.0,0
4938,9.64453125,154,0.0,0
4939,9.646484375,154,-1.0,0
4940,9.6484375,154,5.0,0
4941,9.650390625,154,23.0,0
4942,9.65234375,154,54.0,0
4943,9.654296875,154,52.0,0
4944,9.65625,154,32.0,0
4945,9.658203125,154,16.0,0
4946,9.66015625,154,-4.0,0
4947,9.662109375,154,3.0,0
4948,9.6640625,154,25.0,0
4949,9.666015625,154,33.0,0
4950,9.66796875,154,42.0,0
4951,9.669921875,154,48.0,0
4952,9.671875,154,37.0,0
4953,9.673828125,154,25.0,0
4954,9.67578125,154,37.0,0
4955,9.677734375,154,61.0,0
4956,9.6796875,154,59.0,0
4957,9.681640625,154,36.0,0
4958,9.68359375,154,34.0,0
4959,9.685546875,154,51.0,0
4960,9.6875,155,59.0,0
4961,9.689453125,155,50.0,0
4962,9.69140625,155,28.0,0
4963,9.693359375,155,34.0,0
4964,9.6953125,155,59.0,0
4965,9.697265625,155,76.0,0
4966,9.69921875,155,81.0,0
4967,9.701171875,155,81.0,0
4968,9.703125,155,83.0,0
4969,9.705078125,155,100.0,0
4970,9.70703125,155,99.0,0
4971,9.708984375,155,80.0,0
4972,9.7109375,155,70.0,0
4973,9.712890625,155,72.0,0
4974,9.71484375,155,83.0,0
4975,9.716796875,155,74.0,0
4976,9.71875,155,59.0,0
4977,9.720703125,155,56.0,0
4978,9.72265625,155,56.0,0
4979,9.724609375,155,49.0,0
4980,9.7265625,155,41.0,0
4981,9.728515625,155,38.0,0
4982,9.73046875,155,43.0,0
4983,9.732421875,155,57.0,0
4984,9.734375,155,68.0,0
4985,9.736328125,155,58.0,0
4986,9.73828125,155,44.0,0
4987,9.740234375,155,49.0,0
4988,9.7421875,155,49.0,0
4989,9.744140625,155,54.0,0
4990,9.74609375,155,52.0,0
4991,9.748046875,155,36.0,0
4992,9.75,156,24.0,0
4993,9.751953125,156,26.0,0
4994,9.75390625,156,33.0,0
4995,9.755859375,156,48.0,0
4996,9.7578125,156,49.0,0
4997,9.759765625,156,66.0,0
4998,9.76171875,156,92.0,0
4999,9.763671875,156,103.0,0
5000,9.765625,156,98.0,0
5001,9.767578125,156,92.0,0
5002,9.76953125,156,77.0,0
5003,9.771484375,156,52.0,0
5004,9.7734375,156,52.0,0
5005,9.775390625,156,65.0,0
5006,9.77734375,156,83.0,0
5007,9.779296875,156,98.0,0
5008,9.78125,156,99.0,0
5009,9.783203125,156,83.0,0
5010,9.78515625,156,80.0,0
5011,9.787109375,156,76.0,0
5012,9.7890625,156,76.0,0
5013,9.791015625,156,68.0,0
5014,9.79296875,156,50.0,0
5015,9.794921875,156,57.0,0
5016,9.796875,156,73.0,0
5017,9.798828125,156,70.0,0
5018,9.80078125,156,68.0,0
5019,9.802734375,156,74.0,0
5020,9.8046875,156,87.0,0
5021,9.806640625,156,85.0,0
5022,9.80859375,156,54.0,0
5023,9.810546875,156,38.0,0
5024,9.8125,157,48.0,0
5025,9.814453125,157,64.0,0
5026,9.81640625,157,71.0,0
5027,9.818359375,157,65.0,0
5028,9.8203125,157,61.0,0
5029,9.822265625,157,52.0,0
5030,9.82421875,157,53.0,0
5031,9.826171875,157,66.0,0
5032,9.828125,157,69.0,0
5033,9.830078125,157,60.0,0
5034,9.83203125,157,54.0,0
5035,9.833984375,157,58.0,0
5036,9.8359375,157,65.0,0
5037,9.837890625,157,70.0,0
5038,9.83984375,157,71.0,0
5039,9.841796875,157,67.0,0
5040,9.84375,157,70.0,0
5041,9.845703125,157,66.0,0
5042,9.84765625,157,64.0,0
5043,9.849609375,157,67.0,0
5044,9.8515625,157,51.0,0
5045,9.853515625,157,25.0,0
5046,9.85546875,157,22.0,0
5047,9.857421875,157,28.0,0
5048,9.859375,157,33.0,0
5049,9.861328125,157,36.0,0
5050,9.86328125,157,53.0,0
5051,9.865234375,157,68.0,0
5052,9.8671875,157,48.0,0
5053,9.869140625,157,37.0,0
5054,9.87109375,157,52.0,0
5055,9.873046875,157,50.0,0
5056,9.875,158,37.0,0
5057,9.876953125,158,37.0,0
5058,9.87890625,158,48.0,0
5059,9.880859375,158,53.0,0
5060,9.8828125,158,44.0,0
5061,9.884765625,158,55.0,0
5062,9.88671875,158,56.0,0
5063,9.888671875,158,51.0,0
5064,9.890625,158,58.0,0
5065,9.892578125,158,49.0,0
5066,9.89453125,158,20.0,0
5067,9.896484375,158,4.0,0
5068,9.8984375,158,-8.0,0
5069,9.900390625,158,-24.0,0
5070,9.90234375,158,-30.0,0
5071,9.904296875,158,-25.0,0
5072,9.90625,158,-19.0,0
5073,9.908203125,158,-29.0,0
5074,9.91015625,158,-35.0,0
5075,9.912109375,158,-18.0,0
5076,9.9140625,158,-1.0,0
5077,9.916015625,158,17.0,0
5078,9.91796875,158,41.0,0
5079,9.919921875,158,37.0,0
5080,9.921875,158,18.0,0
5081,9.923828125,158,11.0,0
5082,9.92578125,158,22.0,0
5083,9.927734375,158,32.0,0
5084,9.9296875,158,36.0,0
5085,9.931640625,158,35.0,0
5086,9.93359375,158,28.0,0
5087,9.935546875,158,26.0,0
5088,9.9375,159,33.0,0
5089,9.939453125,159,37.0,0
5090,9.94140625,159,32.0,0
5091,9.943359375,159,36.0,0
5092,9.9453125,159,55.0,0
5093,9.947265625,159,69.0,0
5094,9.94921875,159,65.0,0
5095,9.951171875,159,61.0,0
5096,9.953125,159,58.0,0
5097,9.955078125,159,75.0,0
5098,9.95703125,159,92.0,0
5099,9.958984375,159,74.0,0
5100,9.9609375,159,41.0,0
5101,9.962890625,159,27.0,0
5102,9.96484375,159,43.0,0
5103,9.966796875,159,49.0,0
5104,9.96875,159,38.0,0
5105,9.970703125,159,7.0,0
5106,9.97265625,159,-4.0,0
5107,9.974609375,159,4.0,0
5108,9.9765625,159,18.0,0
5109,9.978515625,159,29.0,0
5110,9.98046875,159,32.0,0
5111,9.982421875,159,26.0,0
5112,9.984375,159,24.0,0
5113,9.986328125,159,33.0,0
5114,9.98828125,159,54.0,0
5115,9.990234375,159,72.0,0
5116,9.9921875,159,80.0,0
5117,9.994140625,159,74.0,0
5118,9.99609375,159,54.0,0
5119,9.998046875,159,32.0,0
5120,10.0,160,35.0,0
5121,10.001953125,160,57.0,0
5122,10.00390625,160,66.0,0
5123,10.005859375,160,57.0,0
5124,10.0078125,160,64.0,0
5125,10.009765625,160,57.0,0
5126,10.01171875,160,49.0,0
5127,10.013671875,160,50.0,0
5128,10.015625,160,59.0,0
5129,10.017578125,160,66.0,0
5130,10.01953125,160,73.0,0
5131,10.021484375,160,83.0,0
5132,10.0234375,160,73.0,0
5133,10.025390625,160,53.0,0
5134,10.02734375,160,27.0,0
5135,10.029296875,160,17.0,0
5136,10.03125,160,32.0,0
5137,10.033203125,160,52.0,0
5138,10.03515625,160,53.0,0
5139,10.037109375,160,36.0,0
5140,10.0390625,160,27.0,0
5141,10.041015625,160,34.0,0
5142,10.04296875,160,37.0,0
5143,10.044921875,160,24.0,0
5144,10.046875,160,20.0,0
5145,10.048828125,160,39.0,0
5146,10.05078125,160,64.0,0
5147,10.052734375,160,69.0,0
5148,10.0546875,160,73.0,0
5149,10.056640625,160,69.0,0
5150,10.05859375,160,70.0,0
5151,10.060546875,160,67.0,0
5152,10.0625,161,59.0,0
5153,10.064453125,161,70.0,0
5154,10.06640625,161,66.0,0
5155,10.068359375,161,55.0,0
5156,10.0703125,161,50.0,0
5157,10.072265625,161,41.0,0
5158,10.07421875,161,35.0,0
5159,10.076171875,161,33.0,0
5160,10.078125,161,28.0,0
5161,10.080078125,161,16.0,0
5162,10.08203125,161,17.0,0
5163,10.083984375,161,33.0,0
5164,10.0859375,161,32.0,0
5165,10.087890625,161,26.0,0
5166,10.08984375,161,21.0,0
5167,10.091796875,161,20.0,0
5168,10.09375,161,16.0,0
5169,10.095703125,161,3.0,0
5170,10.09765625,161,-14.0,0
5171,10.099609375,161,-52.0,0
5172,10.1015625,161,-77.0,0
5173,10.103515625,161,-81.0,0
5174,10.10546875,161,-75.0,0
5175,10.107421875,161,-68.0,0
5176,10.109375,161,-62.0,0
5177,10.111328125,161,-89.0,0
5178,10.11328125,161,-99.0,0
5179,10.115234375,161,-91.0,0
5180,10.1171875,161,-77.0,0
5181,10.119140625,161,-66.0,0
5182,10.12109375,161,-71.0,0
5183,10.123046875,161,-81.0,0
5184,10.125,162,-57.0,0
5185,10.126953125,162,-27.0,0
5186,10.12890625,162,-18.0,0
5187,10.130859375,162,-26.0,0
5188,10.1328125,162,-23.0,0
5189,10.134765625,162,-5.0,0
5190,10.13671875,162,12.0,0
5191,10.138671875,162,16.0,0
5192,10.140625,162,12.0,0
5193,10.142578125,162,27.0,0
5194,10.14453125,162,40.0,0
5195,10.146484375,162,36.0,0
5196,10.1484375,162,34.0,0
5197,10.150390625,162,42.0,0
5198,10.15234375,162,60.0,0
5199,10.154296875,162,59.0,0
5200,10.15625,162,44.0,0
5201,10.158203125,162,38.0,0
5202,10.16015625,162,32.0,0
5203,10.162109375,162,20.0,0
5204,10.1640625,162,34.0,0
5205,10.166015625,162,48.0,0
5206,10.16796875,162,51.0,0
5207,10.169921875,162,59.0,0
5208,10.171875,162,54.0,0
5209,10.173828125,162,56.0,0
5210,10.17578125,162,80.0,0
5211,10.177734375,162,75.0,0
5212,10.1796875,162,71.0,0
5213,10.181640625,162,89.0,0
5214,10.18359375,162,102.0,0
5215,10.185546875,162,88.0,0
5216,10.1875,163,68.0,0
5217,10.189453125,163,68.0,0
5218,10.19140625,163,56.0,0
5219,10.193359375,163,55.0,0
5220,10.1953125,163,58.0,0
5221,10.197265625,163,57.0,0
5222,10.19921875,163,60.0,0
5223,10.201171875,163,68.0,0
5224,10.203125,163,73.0,0
5225,10.205078125,163,70.0,0
5226,10.20703125,163,71.0,0
5227,10.208984375,163,72.0,0
5228,10.2109375,163,69.0,0
5229,10.212890625,163,73.0,0
5230,10.21484375,163,65.0,0
5231,10.216796875,163,38.0,0
5232,10.21875,163,11.0,0
5233,10.220703125,163,-11.0,0
5234,10.22265625,163,-19.0,0
5235,10.224609375,163,-30.0,0
5236,10.2265625,163,-70.0,0
5237,10.228515625,163,-90.0,0
5238,10.23046875,163,-82.0,0
5239,10.232421875,163,-62.0,0
5240,10.234375,163,-55.0,0
5241,10.236328125,163,-52.0,0
5242,10.23828125,163,-56.0,0
5243,10.240234375,163,-67.0,0
5244,10.2421875,163,-65.0,0
5245,10.244140625,163,-35.0,0
5246,10.24609375,163,-8.0,0
5247,10.248046875,163,-2.0,0
5248,10.25,164,3.0,0
5249,10.251953125,164,4.0,0
5250,10.25390625,164,-17.0,0
5251,10.255859375,164,-30.0,0
5252,10.2578125,164,-30.0,0
5253,10.259765625,164,-25.0,0
5254,10.26171875,164,-18.0,0
5255,10.263671875,164,-11.0,0
5256,10.265625,164,-19.0,0
5257,10.267578125,164,-11.0,0
5258,10.26953125,164,5.0,0
5259,10.271484375,164,22.0,0
5260,10.2734375,164,39.0,0
5261,10.275390625,164,55.0,0
5262,10.27734375,164,52.0,0
5263,10.279296875,164,37.0,0
5264,10.28125,164,25.0,0
5265,10.283203125,164,22.0,0
5266,10.28515625,164,38.0,0
5267,10.287109375,164,60.0,0
5268,10.2890625,164,88.0,0
5269,10.291015625,164,93.0,0
5270,10.29296875,164,83.0,0
5271,10.294921875,164,69.0,0
5272,10.296875,164,81.0,0
5273,10.298828125,164,98.0,0
5274,10.30078125,164,88.0,0
5275,10.302734375,164,59.0,0
5276,10.3046875,164,52.0,0
5277,10.306640625,164,61.0,0
5278,10.30859375,164,70.0,0
5279,10.310546875,164,74.0,0
5280,10.3125,165,71.0,0
5281,10.314453125,165,66.0,0
5282,10.31640625,165,70.0,0
5283,10.318359375,165,67.0,0
5284,10.3203125,165,71.0,0
5285,10.322265625,165,91.0,0
5286,10.32421875,165,105.0,0
5287,10.326171875,165,102.0,0
5288,10.328125,165,104.0,0
5289,10.330078125,165,104.0,0
5290,10.33203125,165,99.0,0
5291,10.333984375,165,112.0,0
5292,10.3359375,165,113.0,0
5293,10.337890625,165,83.0,0
5294,10.33984375,165,80.0,0
5295,10.341796875,165,107.0,0
5296,10.34375,165,117.0,0
5297,10.345703125,165,107.0,0
5298,10.34765625,165,103.0,0
5299,10.349609375,165,101.0,0
5300,10.3515625,165,100.0,0
5301,10.353515625,165,93.0,0
5302,10.35546875,165,88.0,0
5303,10.357421875,165,92.0,0
5304,10.359375,165,87.0,0
5305,10.361328125,165,86.0,0
5306,10.36328125,165,91.0,0
5307,10.365234375,165,91.0,0
5308,10.3671875,165,82.0,0
5309,10.369140625,165,69.0,0
5310,10.37109375,165,86.0,0
5311,10.373046875,165,109.0,0
5312,10.375,166,107.0,0
5313,10.376953125,166,91.0,0
5314,10.37890625,166,72.0,0
5315,10.380859375,166,68.0,0
5316,10.3828125,166,72.0,0
5317,10.384765625,166,69.0,0
5318,10.38671875,166,68.0,0
5319,10.388671875,166,84.0,0
5320,10.390625,166,96.0,0
5321,10.392578125,166,92.0,0
5322,10.39453125,166,96.0,0
5323,10.396484375,166,90.0,0
5324,10.3984375,166,83.0,0
5325,10.400390625,166,57.0,0
5326,10.40234375,166,29.0,0
5327,10.404296875,166,33.0,0
5328,10.40625,166,66.0,0
5329,10.408203125,166,75.0,0
5330,10.41015625,166,67.0,0
5331,10.412109375,166,59.0,0
5332,10.4140625,166,54.0,0
5333,10.416015625,166,53.0,0
5334,10.41796875,166,58.0,0
5335,10.419921875,166,66.0,0
5336,10.421875,166,55.0,0
5337,10.423828125,166,49.0,0
5338,10.42578125,166,56.0,0
5339,10.427734375,166,73.0,0
5340,10.4296875,166,92.0,0
5341,10.431640625,166,119.0,0
5342,10.43359375,166,123.0,0
5343,10.435546875,166,102.0,0
5344,10.4375,167,71.0,0
5345,10.439453125,167,52.0,0
5346,10.44140625,167,50.0,0
5347,10.443359375,167,54.0,0
5348,10.4453125,167,48.0,0
5349,10.447265625,167,19.0,0
5350,10.44921875,167,-2.0,0
5351,10.451171875,167,18.0,0
5352,10.453125,167,67.0,0
5353,10.455078125,167,106.0,0
5354,10.45703125,167,123.0,0
5355,10.458984375,167,105.0,0
5356,10.4609375,167,81.0,0
5357,10.462890625,167,68.0,0
5358,10.46484375,167,85.0,0
5359,10.466796875,167,119.0,0
5360,10.46875,167,138.0,0
5361,10.470703125,167,116.0,0
5362,10.47265625,167,69.0,0
5363,10.474609375,167,53.0,0
5364,10.4765625,167,65.0,0
5365,10.478515625,167,72.0,0
5366,10.48046875,167,70.0,0
5367,10.482421875,167,65.0,0
5368,10.484375,167,61.0,0
5369,10.486328125,167,50.0,0
5370,10.48828125,167,43.0,0
5371,10.490234375,167,38.0,0
5372,10.4921875,167,44.0,0
5373,10.494140625,167,45.0,0
5374,10.49609375,167,20.0,0
5375,10.498046875,167,9.0,0
5376,10.5,168,25.0,0
5377,10.501953125,168,51.0,0
5378,10.50390625,168,52.0,0
5379,10.505859375,168,32.0,0
5380,10.5078125,168,32.0,0
5381,10.509765625,168,51.0,0
5382,10.51171875,168,60.0,0
5383,10.513671875,168,57.0,0
5384,10.515625,168,22.0,0
5385,10.517578125,168,-5.0,0
5386,10.51953125,168,16.0,0
5387,10.521484375,168,39.0,0
5388,10.5234375,168,29.0,0
5389,10.525390625,168,23.0,0
5390,10.52734375,168,18.0,0
5391,10.529296875,168,19.0,0
5392,10.53125,168,41.0,0
5393,10.533203125,168,59.0,0
5394,10.53515625,168,48.0,0
5395,10.537109375,168,21.0,0
5396,10.5390625,168,12.0,0
5397,10.541015625,168,35.0,0
5398,10.54296875,168,39.0,0
5399,10.544921875,168,34.0,0
5400,10.546875,168,27.0,0
5401,10.548828125,168,27.0,0
5402,10.55078125,168,29.0,0
5403,10.552734375,168,36.0,0
5404,10.5546875,168,43.0,0
5405,10.556640625,168,35.0,0
5406,10.55859375,168,25.0,0
5407,10.560546875,168,35.0,0
5408,10.5625,169,53.0,0
5409,10.564453125,169,54.0,0
5410,10.56640625,169,41.0,0
5411,10.568359375,169,36.0,0
5412,10.5703125,169,39.0,0
5413,10.572265625,169,37.0,0
5414,10.57421875,169,22.0,0
5415,10.576171875,169,32.0,0
5416,10.578125,169,69.0,0
5417,10.580078125,169,74.0,0
5418,10.58203125,169,65.0,0
5419,10.583984375,169,64.0,0
5420,10.5859375,169,66.0,0
5421,10.587890625,169,54.0,0
5422,10.58984375,169,39.0,0
5423,10.591796875,169,37.0,0
5424,10.59375,169,35.0,0
5425,10.595703125,169,25.0,0
5426,10.59765625,169,21.0,0
5427,10.599609375,169,38.0,0
5428,10.6015625,169,52.0,0
5429,10.603515625,169,55.0,0
5430,10.60546875,169,67.0,0
5431,10.607421875,169,67.0,0
5432,10.609375,169,55.0,0
5433,10.611328125,169,48.0,0
5434,10.61328125,169,44.0,0
5435,10.615234375,169,34.0,0
5436,10.6171875,169,21.0,0
5437,10.619140625,169,13.0,0
5438,10.62109375,169,9.0,0
5439,10.623046875,169,5.0,0
5440,10.625,170,-3.0,0
5441,10.626953125,170,-5.0,0
5442,10.62890625,170,5.0,0
5443,10.630859375,170,23.0,0
5444,10.6328125,170,45.0,0
5445,10.634765625,170,58.0,0
5446,10.63671875,170,65.0,0
5447,10.638671875,170,54.0,0
5448,10.640625,170,44.0,0
5449,10.642578125,170,53.0,0
5450,10.64453125,170,55.0,0
5451,10.646484375,170,51.0,0
5452,10.6484375,170,48.0,0
5453,10.650390625,170,45.0,0
5454,10.65234375,170,45.0,0
5455,10.654296875,170,37.0,0
5456,10.65625,170,27.0,0
5457,10.658203125,170,28.0,0
5458,10.66015625,170,42.0,0
5459,10.662109375,170,41.0,0
5460,10.6640625,170,34.0,0
5461,10.666015625,170,36.0,0
5462,10.66796875,170,44.0,0
5463,10.669921875,170,59.0,0
5464,10.671875,170,67.0,0
5465,10.673828125,170,52.0,0
5466,10.67578125,170,49.0,0
5467,10.677734375,170,57.0,0
5468,10.6796875,170,54.0,0
5469,10.681640625,170,48.0,0
5470,10.68359375,170,53.0,0
5471,10.685546875,170,58.0,0
5472,10.6875,171,53.0,0
5473,10.689453125,171,35.0,0
5474,10.69140625,171,23.0,0
5475,10.693359375,171,25.0,0
5476,10.6953125,171,33.0,0
5477,10.697265625,171,44.0,0
5478,10.69921875,171,57.0,0
5479,10.701171875,171,55.0,0
5480,10.703125,171,44.0,0
5481,10.705078125,171,43.0,0
5482,10.70703125,171,59.0,0
5483,10.708984375,171,66.0,0
5484,10.7109375,171,57.0,0
5485,10.712890625,171,53.0,0
