,Time:512Hz,Epoch,Electrode,Event Id
7680,15.0,240,40.0,0.0
7681,15.001953125,240,39.0,0.0
7682,15.00390625,240,91.0,0.0
7683,15.005859375,240,125.0,0.0
7684,15.0078125,240,71.0,0.0
7685,15.009765625,240,50.0,0.0
7686,15.01171875,240,72.0,0.0
7687,15.013671875,240,69.0,0.0
7688,15.015625,240,84.0,0.0
7689,15.017578125,240,112.0,0.0
7690,15.01953125,240,90.0,0.0
7691,15.021484375,240,55.0,0.0
7692,15.0234375,240,50.0,0.0
7693,15.025390625,240,40.0,0.0
7694,15.02734375,240,37.0,0.0
7695,15.029296875,240,69.0,0.0
7696,15.03125,240,60.0,0.0
7697,15.033203125,240,7.0,0.0
7698,15.03515625,240,-4.0,0.0
7699,15.037109375,240,5.0,0.0
7700,15.0390625,240,2.0,0.0
7701,15.041015625,240,-22.0,0.0
7702,15.04296875,240,-5.0,0.0
7703,15.044921875,240,89.0,0.0
7704,15.046875,240,144.0,0.0
7705,15.048828125,240,134.0,0.0
7706,15.05078125,240,112.0,0.0
7707,15.052734375,240,100.0,0.0
7708,15.0546875,240,113.0,0.0
7709,15.056640625,240,104.0,0.0
7710,15.05859375,240,65.0,0.0
7711,15.060546875,240,49.0,0.0
7712,15.0625,241,53.0,0.0
7713,15.064453125,241,55.0,0.0
7714,15.06640625,241,42.0,0.0
7715,15.068359375,241,51.0,0.0
7716,15.0703125,241,70.0,0.0
7717,15.072265625,241,52.0,0.0
7718,15.07421875,241,-2.0,0.0
7719,15.076171875,241,-37.0,0.0
7720,15.078125,241,-22.0,0.0
7721,15.080078125,241,26.0,0.0
7722,15.08203125,241,74.0,0.0
7723,15.083984375,241,98.0,0.0
7724,15.0859375,241,99.0,0.0
7725,15.087890625,241,92.0,0.0
7726,15.08984375,241,66.0,0.0
7727,15.091796875,241,89.0,0.0
7728,15.09375,241,90.0,0.0
7729,15.095703125,241,58.0,0.0
7730,15.09765625,241,25.0,0.0
7731,15.099609375,241,-21.0,0.0
7732,15.1015625,241,-57.0,0.0
7733,15.103515625,241,-1.0,0.0
7734,15.10546875,241,68.0,0.0
7735,15.107421875,241,87.0,0.0
7736,15.109375,241,84.0,0.0
7737,15.111328125,241,53.0,0.0
7738,15.11328125,241,-4.0,0.0
7739,15.115234375,241,-17.0,0.0
7740,15.1171875,241,13.0,0.0
7741,15.119140625,241,43.0,0.0
7742,15.12109375,241,50.0,0.0
7743,15.123046875,241,70.0,0.0
7744,15.125,242,116.0,0.0
7745,15.126953125,242,122.0,0.0
7746,15.12890625,242,140.0,0.0
7747,15.130859375,242,153.0,0.0
7748,15.1328125,242,136.0,0.0
7749,15.134765625,242,97.0,0.0
7750,15.13671875,242,65.0,0.0
7751,15.138671875,242,68.0,0.0
7752,15.140625,242,44.0,0.0
7753,15.142578125,242,-17.0,0.0
7754,15.14453125,242,-12.0,0.0
7755,15.146484375,242,80.0,0.0
7756,15.1484375,242,150.0,0.0
7757,15.150390625,242,187.0,0.0
7758,15.15234375,242,130.0,0.0
7759,15.154296875,242,71.0,0.0
7760,15.15625,242,24.0,0.0
7761,15.158203125,242,-7.0,0.0
7762,15.16015625,242,37.0,0.0
7763,15.162109375,242,38.0,0.0
7764,15.1640625,242,-62.0,0.0
7765,15.166015625,242,-51.0,0.0
7766,15.16796875,242,40.0,0.0
7767,15.169921875,242,39.0,0.0
7768,15.171875,242,-33.0,0.0
7769,15.173828125,242,-46.0,0.0
7770,15.17578125,242,68.0,0.0
7771,15.177734375,242,150.0,0.0
7772,15.1796875,242,-10.0,0.0
7773,15.181640625,242,-276.0,0.0
7774,15.18359375,242,-422.0,0.0
7775,15.185546875,242,-393.0,0.0
7776,15.1875,243,-298.0,0.0
7777,15.189453125,243,-213.0,0.0
7778,15.19140625,243,-146.0,0.0
7779,15.193359375,243,-204.0,0.0
7780,15.1953125,243,-284.0,0.0
7781,15.197265625,243,-169.0,0.0
7782,15.19921875,243,53.0,0.0
7783,15.201171875,243,149.0,0.0
7784,15.203125,243,123.0,0.0
7785,15.205078125,243,37.0,0.0
7786,15.20703125,243,-11.0,0.0
7787,15.208984375,243,-107.0,0.0
7788,15.2109375,243,-248.0,0.0
7789,15.212890625,243,-326.0,0.0
7790,15.21484375,243,-437.0,0.0
7791,15.216796875,243,-407.0,0.0
7792,15.21875,243,-248.0,0.0
7793,15.220703125,243,26.0,0.0
7794,15.22265625,243,227.0,0.0
7795,15.224609375,243,408.0,0.0
7796,15.2265625,243,660.0,0.0
7797,15.228515625,243,346.0,0.0
7798,15.23046875,243,-198.0,0.0
7799,15.232421875,243,-247.0,0.0
7800,15.234375,243,281.0,0.0
7801,15.236328125,243,435.0,0.0
7802,15.23828125,243,-75.0,0.0
7803,15.240234375,243,-376.0,0.0
7804,15.2421875,243,-93.0,0.0
7805,15.244140625,243,118.0,0.0
7806,15.24609375,243,-446.0,0.0
7807,15.248046875,243,-931.0,0.0
7808,15.25,244,-791.0,0.0
7809,15.251953125,244,-510.0,0.0
7810,15.25390625,244,-602.0,0.0
7811,15.255859375,244,-984.0,0.0
7812,15.2578125,244,-966.0,0.0
7813,15.259765625,244,-409.0,0.0
7814,15.26171875,244,212.0,0.0
7815,15.263671875,244,524.0,0.0
7816,15.265625,244,212.0,0.0
7817,15.267578125,244,-199.0,0.0
7818,15.26953125,244,-308.0,0.0
7819,15.271484375,244,-324.0,0.0
7820,15.2734375,244,-308.0,0.0
7821,15.275390625,244,357.0,0.0
7822,15.27734375,244,1576.0,0.0
7823,15.279296875,244,2047.0,0.0
7824,15.28125,244,1867.0,0.0
7825,15.283203125,244,1424.0,0.0
7826,15.28515625,244,774.0,0.0
7827,15.287109375,244,-250.0,0.0
7828,15.2890625,244,-945.0,0.0
7829,15.291015625,244,-1189.0,0.0
7830,15.29296875,244,-1234.0,0.0
7831,15.294921875,244,-1326.0,0.0
7832,15.296875,244,-1176.0,0.0
7833,15.298828125,244,-845.0,0.0
7834,15.30078125,244,-530.0,0.0
7835,15.302734375,244,-133.0,0.0
7836,15.3046875,244,151.0,0.0
7837,15.306640625,244,124.0,0.0
7838,15.30859375,244,-229.0,0.0
7839,15.310546875,244,-679.0,0.0
7840,15.3125,245,-900.0,0.0
7841,15.314453125,245,-665.0,0.0
7842,15.31640625,245,35.0,0.0
7843,15.318359375,245,807.0,0.0
7844,15.3203125,245,1200.0,0.0
7845,15.322265625,245,1270.0,0.0
7846,15.32421875,245,893.0,0.0
7847,15.326171875,245,450.0,0.0
7848,15.328125,245,338.0,0.0
7849,15.330078125,245,50.0,0.0
7850,15.33203125,245,-563.0,0.0
7851,15.333984375,245,-774.0,0.0
7852,15.3359375,245,-486.0,0.0
7853,15.337890625,245,-262.0,0.0
7854,15.33984375,245,-9.0,0.0
7855,15.341796875,245,208.0,0.0
7856,15.34375,245,70.0,0.0
7857,15.345703125,245,-195.0,0.0
7858,15.34765625,245,-321.0,0.0
7859,15.349609375,245,-233.0,0.0
7860,15.3515625,245,-109.0,0.0
7861,15.353515625,245,-141.0,0.0
7862,15.35546875,245,-270.0,0.0
7863,15.357421875,245,-291.0,0.0
7864,15.359375,245,-147.0,0.0
7865,15.361328125,245,-12.0,0.0
7866,15.36328125,245,49.0,0.0
7867,15.365234375,245,130.0,0.0
7868,15.3671875,245,195.0,0.0
7869,15.369140625,245,194.0,0.0
7870,15.37109375,245,96.0,0.0
7871,15.373046875,245,-7.0,0.0
7872,15.375,246,34.0,0.0
7873,15.376953125,246,119.0,0.0
7874,15.37890625,246,139.0,0.0
7875,15.380859375,246,148.0,0.0
7876,15.3828125,246,170.0,0.0
7877,15.384765625,246,196.0,0.0
7878,15.38671875,246,216.0,0.0
7879,15.388671875,246,228.0,0.0
7880,15.390625,246,256.0,0.0
7881,15.392578125,246,244.0,0.0
7882,15.39453125,246,198.0,0.0
7883,15.396484375,246,228.0,0.0
7884,15.3984375,246,308.0,0.0
7885,15.400390625,246,321.0,0.0
7886,15.40234375,246,293.0,0.0
7887,15.404296875,246,279.0,0.0
7888,15.40625,246,243.0,0.0
7889,15.408203125,246,184.0,0.0
7890,15.41015625,246,112.0,0.0
7891,15.412109375,246,102.0,0.0
7892,15.4140625,246,155.0,0.0
7893,15.416015625,246,215.0,0.0
7894,15.41796875,246,228.0,0.0
7895,15.419921875,246,243.0,0.0
7896,15.421875,246,272.0,0.0
7897,15.423828125,246,260.0,0.0
7898,15.42578125,246,196.0,0.0
7899,15.427734375,246,128.0,0.0
7900,15.4296875,246,84.0,0.0
7901,15.431640625,246,59.0,0.0
7902,15.43359375,246,98.0,0.0
7903,15.435546875,246,131.0,0.0
7904,15.4375,247,132.0,0.0
7905,15.439453125,247,173.0,0.0
7906,15.44140625,247,183.0,0.0
7907,15.443359375,247,162.0,0.0
7908,15.4453125,247,130.0,0.0
7909,15.447265625,247,120.0,0.0
7910,15.44921875,247,99.0,0.0
7911,15.451171875,247,41.0,0.0
7912,15.453125,247,22.0,0.0
7913,15.455078125,247,70.0,0.0
7914,15.45703125,247,114.0,0.0
7915,15.458984375,247,133.0,0.0
7916,15.4609375,247,115.0,0.0
7917,15.462890625,247,82.0,0.0
7918,15.46484375,247,96.0,0.0
7919,15.466796875,247,147.0,0.0
7920,15.46875,247,204.0,0.0
7921,15.470703125,247,178.0,0.0
7922,15.47265625,247,101.0,0.0
7923,15.474609375,247,100.0,0.0
7924,15.4765625,247,133.0,0.0
7925,15.478515625,247,144.0,0.0
7926,15.48046875,247,146.0,0.0
7927,15.482421875,247,147.0,0.0
7928,15.484375,247,118.0,0.0
7929,15.486328125,247,52.0,0.0
7930,15.48828125,247,42.0,0.0
7931,15.490234375,247,91.0,0.0
7932,15.4921875,247,98.0,0.0
7933,15.494140625,247,60.0,0.0
7934,15.49609375,247,49.0,0.0
7935,15.498046875,247,80.0,0.0
7936,15.5,248,118.0,0.0
7937,15.501953125,248,114.0,0.0
7938,15.50390625,248,109.0,0.0
7939,15.505859375,248,136.0,0.0
7940,15.5078125,248,161.0,0.0
7941,15.509765625,248,197.0,0.0
7942,15.51171875,248,247.0,0.0
7943,15.513671875,248,248.0,0.0
7944,15.515625,248,218.0,0.0
7945,15.517578125,248,196.0,0.0
7946,15.51953125,248,185.0,0.0
7947,15.521484375,248,273.0,0.0
7948,15.5234375,248,315.0,0.0
7949,15.525390625,248,244.0,0.0
7950,15.52734375,248,220.0,0.0
7951,15.529296875,248,280.0,0.0
7952,15.53125,248,327.0,0.0
7953,15.533203125,248,355.0,0.0
7954,15.53515625,248,331.0,0.0
7955,15.537109375,248,274.0,0.0
7956,15.5390625,248,259.0,0.0
7957,15.541015625,248,257.0,0.0
7958,15.54296875,248,208.0,0.0
7959,15.544921875,248,187.0,0.0
7960,15.546875,248,192.0,0.0
7961,15.548828125,248,202.0,0.0
7962,15.55078125,248,221.0,0.0
7963,15.552734375,248,229.0,0.0
7964,15.5546875,248,213.0,0.0
7965,15.556640625,248,155.0,0.0
7966,15.55859375,248,104.0,0.0
7967,15.560546875,248,132.0,0.0
7968,15.5625,249,179.0,0.0
7969,15.564453125,249,162.0,0.0
7970,15.56640625,249,87.0,0.0
7971,15.568359375,249,25.0,0.0
7972,15.5703125,249,21.0,0.0
7973,15.572265625,249,58.0,0.0
7974,15.57421875,249,84.0,0.0
7975,15.576171875,249,74.0,0.0
7976,15.578125,249,84.0,0.0
7977,15.580078125,249,102.0,0.0
7978,15.58203125,249,84.0,0.0
7979,15.583984375,249,53.0,0.0
7980,15.5859375,249,52.0,0.0
7981,15.587890625,249,99.0,0.0
7982,15.58984375,249,121.0,0.0
7983,15.591796875,249,68.0,0.0
7984,15.59375,249,-6.0,0.0
7985,15.595703125,249,-34.0,0.0
7986,15.59765625,249,7.0,0.0
7987,15.599609375,249,60.0,0.0
7988,15.6015625,249,88.0,0.0
7989,15.603515625,249,90.0,0.0
7990,15.60546875,249,61.0,0.0
7991,15.607421875,249,88.0,0.0
7992,15.609375,249,169.0,0.0
7993,15.611328125,249,182.0,0.0
7994,15.61328125,249,114.0,0.0
7995,15.615234375,249,99.0,0.0
7996,15.6171875,249,161.0,0.0
7997,15.619140625,249,186.0,0.0
7998,15.62109375,249,155.0,0.0
7999,15.623046875,249,106.0,0.0
8000,15.625,250,92.0,0.0
8001,15.626953125,250,157.0,0.0
8002,15.62890625,250,208.0,0.0
8003,15.630859375,250,182.0,0.0
8004,15.6328125,250,113.0,0.0
8005,15.634765625,250,74.0,0.0
8006,15.63671875,250,76.0,0.0
8007,15.638671875,250,113.0,0.0
8008,15.640625,250,160.0,0.0
8009,15.642578125,250,189.0,0.0
8010,15.64453125,250,184.0,0.0
8011,15.646484375,250,179.0,0.0
8012,15.6484375,250,148.0,0.0
8013,15.650390625,250,93.0,0.0
8014,15.65234375,250,92.0,0.0
8015,15.654296875,250,117.0,0.0
8016,15.65625,250,122.0,0.0
8017,15.658203125,250,96.0,0.0
8018,15.66015625,250,72.0,0.0
8019,15.662109375,250,76.0,0.0
8020,15.6640625,250,117.0,0.0
8021,15.666015625,250,138.0,0.0
8022,15.66796875,250,118.0,0.0
8023,15.669921875,250,137.0,0.0
8024,15.671875,250,193.0,0.0
8025,15.673828125,250,218.0,0.0
8026,15.67578125,250,181.0,0.0
8027,15.677734375,250,120.0,0.0
8028,15.6796875,250,120.0,0.0
8029,15.681640625,250,154.0,0.0
8030,15.68359375,250,180.0,0.0
8031,15.685546875,250,167.0,0.0
8032,15.6875,251,116.0,0.0
8033,15.689453125,251,75.0,0.0
8034,15.69140625,251,54.0,0.0
8035,15.693359375,251,42.0,0.0
8036,15.6953125,251,49.0,0.0
8037,15.697265625,251,61.0,0.0
8038,15.69921875,251,64.0,0.0
8039,15.701171875,251,50.0,0.0
8040,15.703125,251,66.0,0.0
8041,15.705078125,251,105.0,0.0
8042,15.70703125,251,150.0,0.0
8043,15.708984375,251,170.0,0.0
8044,15.7109375,251,102.0,0.0
8045,15.712890625,251,28.0,0.0
8046,15.71484375,251,56.0,0.0
8047,15.716796875,251,105.0,0.0
8048,15.71875,251,108.0,0.0
8049,15.720703125,251,86.0,0.0
8050,15.72265625,251,90.0,0.0
8051,15.724609375,251,119.0,0.0
8052,15.7265625,251,139.0,0.0
8053,15.728515625,251,136.0,0.0
8054,15.73046875,251,154.0,0.0
8055,15.732421875,251,187.0,0.0
8056,15.734375,251,176.0,0.0
8057,15.736328125,251,128.0,0.0
8058,15.73828125,251,117.0,0.0
8059,15.740234375,251,138.0,0.0
8060,15.7421875,251,147.0,0.0
8061,15.744140625,251,122.0,0.0
8062,15.74609375,251,97.0,0.0
8063,15.748046875,251,90.0,0.0
8064,15.75,252,120.0,0.0
8065,15.751953125,252,157.0,0.0
8066,15.75390625,252,157.0,0.0
8067,15.755859375,252,120.0,0.0
8068,15.7578125,252,99.0,0.0
8069,15.759765625,252,104.0,0.0
8070,15.76171875,252,121.0,0.0
8071,15.763671875,252,129.0,0.0
8072,15.765625,252,109.0,0.0
8073,15.767578125,252,101.0,0.0
8074,15.76953125,252,116.0,0.0
8075,15.771484375,252,103.0,0.0
8076,15.7734375,252,73.0,0.0
8077,15.775390625,252,72.0,0.0
8078,15.77734375,252,84.0,0.0
8079,15.779296875,252,82.0,0.0
8080,15.78125,252,55.0,0.0
8081,15.783203125,252,28.0,0.0
8082,15.78515625,252,38.0,0.0
8083,15.787109375,252,60.0,0.0
8084,15.7890625,252,83.0,0.0
8085,15.791015625,252,60.0,0.0
8086,15.79296875,252,3.0,0.0
8087,15.794921875,252,-11.0,0.0
8088,15.796875,252,40.0,0.0
8089,15.798828125,252,72.0,0.0
8090,15.80078125,252,58.0,0.0
8091,15.802734375,252,59.0,0.0
8092,15.8046875,252,56.0,0.0
8093,15.806640625,252,52.0,0.0
8094,15.80859375,252,57.0,0.0
8095,15.810546875,252,52.0,0.0
8096,15.8125,253,36.0,0.0
8097,15.814453125,253,23.0,0.0
8098,15.81640625,253,-6.0,0.0
8099,15.818359375,253,-84.0,0.0
8100,15.8203125,253,-146.0,0.0
8101,15.822265625,253,-129.0,0.0
8102,15.82421875,253,-35.0,0.0
8103,15.826171875,253,29.0,0.0
8104,15.828125,253,3.0,0.0
8105,15.830078125,253,-58.0,0.0
8106,15.83203125,253,-41.0,0.0
8107,15.833984375,253,-2.0,0.0
8108,15.8359375,253,-10.0,0.0
8109,15.837890625,253,4.0,0.0
8110,15.83984375,253,21.0,0.0
8111,15.841796875,253,-21.0,0.0
8112,15.84375,253,-76.0,0.0
8113,15.845703125,253,-65.0,0.0
8114,15.84765625,253,-12.0,0.0
8115,15.849609375,253,-1.0,0.0
8116,15.8515625,253,-52.0,0.0
8117,15.853515625,253,-92.0,0.0
8118,15.85546875,253,-93.0,0.0
8119,15.857421875,253,-98.0,0.0
8120,15.859375,253,-60.0,0.0
8121,15.861328125,253,10.0,0.0
8122,15.86328125,253,60.0,0.0
8123,15.865234375,253,28.0,0.0
8124,15.8671875,253,-69.0,0.0
8125,15.869140625,253,-66.0,0.0
8126,15.87109375,253,60.0,0.0
8127,15.873046875,253,69.0,0.0
8128,15.875,254,-44.0,0.0
8129,15.876953125,254,-168.0,0.0
8130,15.87890625,254,-177.0,0.0
8131,15.880859375,254,-108.0,0.0
8132,15.8828125,254,-36.0,0.0
8133,15.884765625,254,-7.0,0.0
8134,15.88671875,254,-28.0,0.0
8135,15.888671875,254,-72.0,0.0
8136,15.890625,254,-86.0,0.0
8137,15.892578125,254,-42.0,0.0
8138,15.89453125,254,5.0,0.0
8139,15.896484375,254,40.0,0.0
8140,15.8984375,254,39.0,0.0
8141,15.900390625,254,0.0,0.0
8142,15.90234375,254,-35.0,0.0
8143,15.904296875,254,-74.0,0.0
8144,15.90625,254,-100.0,0.0
8145,15.908203125,254,-77.0,0.0
8146,15.91015625,254,-62.0,0.0
8147,15.912109375,254,-115.0,0.0
8148,15.9140625,254,-164.0,0.0
8149,15.916015625,254,-151.0,0.0
8150,15.91796875,254,-59.0,0.0
8151,15.919921875,254,72.0,0.0
8152,15.921875,254,84.0,0.0
8153,15.923828125,254,28.0,0.0
8154,15.92578125,254,-11.0,0.0
8155,15.927734375,254,-55.0,0.0
8156,15.9296875,254,-37.0,0.0
8157,15.931640625,254,55.0,0.0
8158,15.93359375,254,76.0,0.0
8159,15.935546875,254,29.0,0.0
8160,15.9375,255,-44.0,0.0
8161,15.939453125,255,-113.0,0.0
8162,15.94140625,255,-115.0,0.0
8163,15.943359375,255,-5.0,0.0
8164,15.9453125,255,-21.0,0.0
8165,15.947265625,255,-174.0,0.0
8166,15.94921875,255,-299.0,0.0
8167,15.951171875,255,-300.0,0.0
8168,15.953125,255,-243.0,0.0
8169,15.955078125,255,-177.0,0.0
8170,15.95703125,255,-54.0,0.0
8171,15.958984375,255,180.0,0.0
8172,15.9609375,255,311.0,0.0
8173,15.962890625,255,162.0,0.0
8174,15.96484375,255,-171.0,0.0
8175,15.966796875,255,-403.0,0.0
8176,15.96875,255,-360.0,0.0
8177,15.970703125,255,-188.0,0.0
8178,15.97265625,255,-101.0,0.0
8179,15.974609375,255,-180.0,0.0
8180,15.9765625,255,-243.0,0.0
8181,15.978515625,255,27.0,0.0
8182,15.98046875,255,410.0,0.0
8183,15.982421875,255,327.0,0.0
8184,15.984375,255,58.0,0.0
8185,15.986328125,255,-142.0,0.0
8186,15.98828125,255,-315.0,0.0
8187,15.990234375,255,-517.0,0.0
8188,15.9921875,255,-568.0,0.0
8189,15.994140625,255,-358.0,0.0
8190,15.99609375,255,-83.0,0.0
8191,15.998046875,255,-40.0,0.0
8192,16.0,256,-168.0,0.0
8193,16.001953125,256,-44.0,0.0
8194,16.00390625,256,227.0,0.0
8195,16.005859375,256,345.0,0.0
8196,16.0078125,256,452.0,0.0
8197,16.009765625,256,892.0,0.0
8198,16.01171875,256,772.0,0.0
8199,16.013671875,256,9.0,0.0
8200,16.015625,256,-291.0,0.0
8201,16.017578125,256,100.0,0.0
8202,16.01953125,256,377.0,0.0
8203,16.021484375,256,208.0,0.0
8204,16.0234375,256,52.0,0.0
8205,16.025390625,256,-151.0,0.0
8206,16.02734375,256,-754.0,0.0
8207,16.029296875,256,-1123.0,0.0
8208,16.03125,256,-983.0,0.0
8209,16.033203125,256,-701.0,0.0
8210,16.03515625,256,-561.0,0.0
8211,16.037109375,256,-605.0,0.0
8212,16.0390625,256,-594.0,0.0
8213,16.041015625,256,-299.0,0.0
8214,16.04296875,256,138.0,0.0
8215,16.044921875,256,771.0,0.0
8216,16.046875,256,1111.0,0.0
8217,16.048828125,256,499.0,0.0
8218,16.05078125,256,-338.0,0.0
8219,16.052734375,256,-266.0,0.0
8220,16.0546875,256,535.0,0.0
8221,16.056640625,256,795.0,0.0
8222,16.05859375,256,283.0,0.0
8223,16.060546875,256,-664.0,0.0
8224,16.0625,257,-1142.0,0.0
8225,16.064453125,257,-702.0,0.0
8226,16.06640625,257,-122.0,0.0
8227,16.068359375,257,81.0,0.0
8228,16.0703125,257,77.0,0.0
8229,16.072265625,257,-306.0,0.0
8230,16.07421875,257,-760.0,0.0
8231,16.076171875,257,-669.0,0.0
8232,16.078125,257,-216.0,0.0
8233,16.080078125,257,70.0,0.0
8234,16.08203125,257,96.0,0.0
8235,16.083984375,257,21.0,0.0
8236,16.0859375,257,-65.0,0.0
8237,16.087890625,257,-166.0,0.0
8238,16.08984375,257,-241.0,0.0
8239,16.091796875,257,-249.0,0.0
8240,16.09375,257,-141.0,0.0
8241,16.095703125,257,-3.0,0.0
8242,16.09765625,257,-6.0,0.0
8243,16.099609375,257,-103.0,0.0
8244,16.1015625,257,-173.0,0.0
8245,16.103515625,257,-195.0,0.0
8246,16.10546875,257,-197.0,0.0
8247,16.107421875,257,-214.0,0.0
8248,16.109375,257,-212.0,0.0
8249,16.111328125,257,-206.0,0.0
8250,16.11328125,257,-130.0,0.0
8251,16.115234375,257,-9.0,0.0
8252,16.1171875,257,56.0,0.0
8253,16.119140625,257,61.0,0.0
8254,16.12109375,257,50.0,0.0
8255,16.123046875,257,0.0,0.0
8256,16.125,258,-36.0,0.0
8257,16.126953125,258,-39.0,0.0
8258,16.12890625,258,-19.0,0.0
8259,16.130859375,258,50.0,0.0
8260,16.1328125,258,117.0,0.0
8261,16.134765625,258,117.0,0.0
8262,16.13671875,258,90.0,0.0
8263,16.138671875,258,98.0,0.0
8264,16.140625,258,112.0,0.0
8265,16.142578125,258,103.0,0.0
8266,16.14453125,258,81.0,0.0
8267,16.146484375,258,61.0,0.0
8268,16.1484375,258,56.0,0.0
8269,16.150390625,258,102.0,0.0
8270,16.15234375,258,164.0,0.0
8271,16.154296875,258,181.0,0.0
8272,16.15625,258,166.0,0.0
8273,16.158203125,258,139.0,0.0
8274,16.16015625,258,117.0,0.0
8275,16.162109375,258,164.0,0.0
8276,16.1640625,258,225.0,0.0
8277,16.166015625,258,181.0,0.0
8278,16.16796875,258,96.0,0.0
8279,16.169921875,258,96.0,0.0
8280,16.171875,258,124.0,0.0
8281,16.173828125,258,74.0,0.0
8282,16.17578125,258,6.0,0.0
8283,16.177734375,258,75.0,0.0
8284,16.1796875,258,233.0,0.0
8285,16.181640625,258,278.0,0.0
8286,16.18359375,258,202.0,0.0
8287,16.185546875,258,120.0,0.0
8288,16.1875,259,152.0,0.0
8289,16.189453125,259,228.0,0.0
8290,16.19140625,259,197.0,0.0
8291,16.193359375,259,101.0,0.0
8292,16.1953125,259,73.0,0.0
8293,16.197265625,259,83.0,0.0
8294,16.19921875,259,86.0,0.0
8295,16.201171875,259,101.0,0.0
8296,16.203125,259,138.0,0.0
8297,16.205078125,259,156.0,0.0
8298,16.20703125,259,114.0,0.0
8299,16.208984375,259,37.0,0.0
8300,16.2109375,259,-6.0,0.0
8301,16.212890625,259,11.0,0.0
8302,16.21484375,259,42.0,0.0
8303,16.216796875,259,21.0,0.0
8304,16.21875,259,1.0,0.0
8305,16.220703125,259,49.0,0.0
8306,16.22265625,259,77.0,0.0
8307,16.224609375,259,71.0,0.0
8308,16.2265625,259,56.0,0.0
8309,16.228515625,259,53.0,0.0
8310,16.23046875,259,58.0,0.0
8311,16.232421875,259,58.0,0.0
8312,16.234375,259,24.0,0.0
8313,16.236328125,259,10.0,0.0
8314,16.23828125,259,39.0,0.0
8315,16.240234375,259,59.0,0.0
8316,16.2421875,259,52.0,0.0
8317,16.244140625,259,57.0,0.0
8318,16.24609375,259,91.0,0.0
8319,16.248046875,259,86.0,0.0
8320,16.25,260,58.0,0.0
8321,16.251953125,260,100.0,0.0
8322,16.25390625,260,165.0,0.0
8323,16.255859375,260,176.0,0.0
8324,16.2578125,260,188.0,0.0
8325,16.259765625,260,230.0,0.0
8326,16.26171875,260,272.0,0.0
8327,16.263671875,260,278.0,0.0
8328,16.265625,260,289.0,0.0
8329,16.267578125,260,331.0,0.0
8330,16.26953125,260,346.0,0.0
8331,16.271484375,260,341.0,0.0
8332,16.2734375,260,375.0,0.0
8333,16.275390625,260,412.0,0.0
8334,16.27734375,260,425.0,0.0
8335,16.279296875,260,428.0,0.0
8336,16.28125,260,419.0,0.0
8337,16.283203125,260,416.0,0.0
8338,16.28515625,260,384.0,0.0
8339,16.287109375,260,327.0,0.0
8340,16.2890625,260,316.0,0.0
8341,16.291015625,260,337.0,0.0
8342,16.29296875,260,313.0,0.0
8343,16.294921875,260,261.0,0.0
8344,16.296875,260,241.0,0.0
8345,16.298828125,260,274.0,0.0
8346,16.30078125,260,317.0,0.0
8347,16.302734375,260,356.0,0.0
8348,16.3046875,260,364.0,0.0
8349,16.306640625,260,326.0,0.0
8350,16.30859375,260,304.0,0.0
8351,16.310546875,260,312.0,0.0
8352,16.3125,261,321.0,0.0
8353,16.314453125,261,320.0,0.0
8354,16.31640625,261,288.0,0.0
8355,16.318359375,261,224.0,0.0
8356,16.3203125,261,181.0,0.0
8357,16.322265625,261,172.0,0.0
8358,16.32421875,261,172.0,0.0
8359,16.326171875,261,204.0,0.0
8360,16.328125,261,266.0,0.0
8361,16.330078125,261,295.0,0.0
8362,16.33203125,261,247.0,0.0
8363,16.333984375,261,170.0,0.0
8364,16.3359375,261,129.0,0.0
8365,16.337890625,261,124.0,0.0
8366,16.33984375,261,123.0,0.0
8367,16.341796875,261,107.0,0.0
8368,16.34375,261,81.0,0.0
8369,16.345703125,261,68.0,0.0
8370,16.34765625,261,89.0,0.0
8371,16.349609375,261,123.0,0.0
8372,16.3515625,261,151.0,0.0
8373,16.353515625,261,152.0,0.0
8374,16.35546875,261,146.0,0.0
8375,16.357421875,261,163.0,0.0
8376,16.359375,261,181.0,0.0
8377,16.361328125,261,177.0,0.0
8378,16.36328125,261,135.0,0.0
8379,16.365234375,261,81.0,0.0
8380,16.3671875,261,74.0,0.0
8381,16.369140625,261,96.0,0.0
8382,16.37109375,261,118.0,0.0
8383,16.373046875,261,139.0,0.0
8384,16.375,262,149.0,0.0
8385,16.376953125,262,137.0,0.0
8386,16.37890625,262,120.0,0.0
8387,16.380859375,262,118.0,0.0
8388,16.3828125,262,113.0,0.0
8389,16.384765625,262,72.0,0.0
8390,16.38671875,262,19.0,0.0
8391,16.388671875,262,12.0,0.0
8392,16.390625,262,50.0,0.0
8393,16.392578125,262,87.0,0.0
8394,16.39453125,262,88.0,0.0
8395,16.396484375,262,67.0,0.0
8396,16.3984375,262,59.0,0.0
8397,16.400390625,262,58.0,0.0
8398,16.40234375,262,88.0,0.0
8399,16.404296875,262,119.0,0.0
8400,16.40625,262,123.0,0.0
8401,16.408203125,262,92.0,0.0
8402,16.41015625,262,55.0,0.0
8403,16.412109375,262,37.0,0.0
8404,16.4140625,262,43.0,0.0
8405,16.416015625,262,74.0,0.0
8406,16.41796875,262,97.0,0.0
8407,16.419921875,262,99.0,0.0
8408,16.421875,262,76.0,0.0
8409,16.423828125,262,54.0,0.0
8410,16.42578125,262,90.0,0.0
8411,16.427734375,262,117.0,0.0
8412,16.4296875,262,100.0,0.0
8413,16.431640625,262,85.0,0.0
8414,16.43359375,262,97.0,0.0
8415,16.435546875,262,121.0,0.0
8416,16.4375,263,128.0,0.0
8417,16.439453125,263,112.0,0.0
8418,16.44140625,263,86.0,0.0
8419,16.443359375,263,28.0,0.0
8420,16.4453125,263,-9.0,0.0
8421,16.447265625,263,3.0,0.0
8422,16.44921875,263,28.0,0.0
8423,16.451171875,263,38.0,0.0
8424,16.453125,263,48.0,0.0
8425,16.455078125,263,60.0,0.0
8426,16.45703125,263,73.0,0.0
8427,16.458984375,263,76.0,0.0
8428,16.4609375,263,71.0,0.0
8429,16.462890625,263,56.0,0.0
8430,16.46484375,263,48.0,0.0
8431,16.466796875,263,43.0,0.0
8432,16.46875,263,38.0,0.0
8433,16.470703125,263,16.0,0.0
8434,16.47265625,263,4.0,0.0
8435,16.474609375,263,24.0,0.0
8436,16.4765625,263,54.0,0.0
8437,16.478515625,263,41.0,0.0
8438,16.48046875,263,-5.0,0.0
8439,16.482421875,263,-14.0,0.0
8440,16.484375,263,11.0,0.0
8441,16.486328125,263,5.0,0.0
8442,16.48828125,263,-34.0,0.0
8443,16.490234375,263,-54.0,0.0
8444,16.4921875,263,-37.0,0.0
8445,16.494140625,263,16.0,0.0
8446,16.49609375,263,36.0,0.0
8447,16.498046875,263,1.0,0.0
8448,16.5,264,-4.0,0.0
8449,16.501953125,264,6.0,0.0
8450,16.50390625,264,-6.0,0.0
8451,16.505859375,264,-20.0,0.0
8452,16.5078125,264,-18.0,0.0
8453,16.509765625,264,2.0,0.0
8454,16.51171875,264,38.0,0.0
8455,16.513671875,264,73.0,0.0
8456,16.515625,264,25.0,0.0
8457,16.517578125,264,-35.0,0.0
8458,16.51953125,264,-59.0,0.0
8459,16.521484375,264,-69.0,0.0
8460,16.5234375,264,-91.0,0.0
8461,16.525390625,264,-122.0,0.0
8462,16.52734375,264,-129.0,0.0
8463,16.529296875,264,-122.0,0.0
8464,16.53125,264,-116.0,0.0
8465,16.533203125,264,-110.0,0.0
8466,16.53515625,264,-61.0,0.0
8467,16.537109375,264,-9.0,0.0
8468,16.5390625,264,-14.0,0.0
8469,16.541015625,264,-35.0,0.0
8470,16.54296875,264,-49.0,0.0
8471,16.544921875,264,-94.0,0.0
8472,16.546875,264,-122.0,0.0
8473,16.548828125,264,-130.0,0.0
8474,16.55078125,264,-103.0,0.0
8475,16.552734375,264,-62.0,0.0
8476,16.5546875,264,-49.0,0.0
8477,16.556640625,264,-41.0,0.0
8478,16.55859375,264,-50.0,0.0
8479,16.560546875,264,-67.0,0.0
8480,16.5625,265,-53.0,0.0
8481,16.564453125,265,-28.0,0.0
8482,16.56640625,265,-56.0,0.0
8483,16.568359375,265,-68.0,0.0
8484,16.5703125,265,-28.0,0.0
8485,16.572265625,265,-6.0,0.0
8486,16.57421875,265,17.0,0.0
8487,16.576171875,265,8.0,0.0
8488,16.578125,265,1.0,0.0
8489,16.580078125,265,5.0,0.0
8490,16.58203125,265,-9.0,0.0
8491,16.583984375,265,-20.0,0.0
8492,16.5859375,265,6.0,0.0
8493,16.587890625,265,81.0,0.0
8494,16.58984375,265,137.0,0.0
8495,16.591796875,265,128.0,0.0
8496,16.59375,265,85.0,0.0
8497,16.595703125,265,69.0,0.0
8498,16.59765625,265,76.0,0.0
8499,16.599609375,265,113.0,0.0
8500,16.6015625,265,104.0,0.0
8501,16.603515625,265,28.0,0.0
8502,16.60546875,265,-7.0,0.0
8503,16.607421875,265,32.0,0.0
8504,16.609375,265,51.0,0.0
8505,16.611328125,265,32.0,0.0
8506,16.61328125,265,24.0,0.0
8507,16.615234375,265,56.0,0.0
8508,16.6171875,265,83.0,0.0
8509,16.619140625,265,80.0,0.0
8510,16.62109375,265,59.0,0.0
8511,16.623046875,265,32.0,0.0
8512,16.625,266,-5.0,0.0
8513,16.626953125,266,-18.0,0.0
8514,16.62890625,266,-8.0,0.0
8515,16.630859375,266,-24.0,0.0
8516,16.6328125,266,-44.0,0.0
8517,16.634765625,266,-27.0,0.0
8518,16.63671875,266,8.0,0.0
8519,16.638671875,266,25.0,0.0
8520,16.640625,266,6.0,0.0
8521,16.642578125,266,-6.0,0.0
8522,16.64453125,266,9.0,0.0
8523,16.646484375,266,21.0,0.0
8524,16.6484375,266,5.0,0.0
8525,16.650390625,266,0.0,0.0
8526,16.65234375,266,21.0,0.0
8527,16.654296875,266,36.0,0.0
8528,16.65625,266,10.0,0.0
8529,16.658203125,266,16.0,0.0
8530,16.66015625,266,-13.0,0.0
8531,16.662109375,266,-62.0,0.0
8532,16.6640625,266,-73.0,0.0
8533,16.666015625,266,-61.0,0.0
8534,16.66796875,266,-44.0,0.0
8535,16.669921875,266,-39.0,0.0
8536,16.671875,266,-88.0,0.0
8537,16.673828125,266,-99.0,0.0
8538,16.67578125,266,4.0,0.0
8539,16.677734375,266,128.0,0.0
8540,16.6796875,266,77.0,0.0
8541,16.681640625,266,5.0,0.0
8542,16.68359375,266,-10.0,0.0
8543,16.685546875,266,56.0,0.0
8544,16.6875,267,66.0,0.0
8545,16.689453125,267,33.0,0.0
8546,16.69140625,267,109.0,0.0
8547,16.693359375,267,150.0,0.0
8548,16.6953125,267,59.0,0.0
8549,16.697265625,267,33.0,0.0
8550,16.69921875,267,23.0,0.0
8551,16.701171875,267,-7.0,0.0
8552,16.703125,267,11.0,0.0
8553,16.705078125,267,10.0,0.0
8554,16.70703125,267,-107.0,0.0
8555,16.708984375,267,-220.0,0.0
8556,16.7109375,267,-226.0,0.0
8557,16.712890625,267,-93.0,0.0
8558,16.71484375,267,151.0,0.0
8559,16.716796875,267,193.0,0.0
8560,16.71875,267,103.0,0.0
8561,16.720703125,267,66.0,0.0
8562,16.72265625,267,-76.0,0.0
8563,16.724609375,267,-158.0,0.0
8564,16.7265625,267,-22.0,0.0
8565,16.728515625,267,258.0,0.0
8566,16.73046875,267,491.0,0.0
8567,16.732421875,267,384.0,0.0
8568,16.734375,267,-14.0,0.0
8569,16.736328125,267,-140.0,0.0
8570,16.73828125,267,39.0,0.0
8571,16.740234375,267,33.0,0.0
8572,16.7421875,267,-214.0,0.0
8573,16.744140625,267,-328.0,0.0
8574,16.74609375,267,7.0,0.0
8575,16.748046875,267,515.0,0.0
8576,16.75,268,540.0,0.0
8577,16.751953125,268,41.0,0.0
8578,16.75390625,268,-366.0,0.0
8579,16.755859375,268,-317.0,0.0
8580,16.7578125,268,-3.0,0.0
8581,16.759765625,268,81.0,0.0
8582,16.76171875,268,-28.0,0.0
8583,16.763671875,268,218.0,0.0
8584,16.765625,268,667.0,0.0
8585,16.767578125,268,596.0,0.0
8586,16.76953125,268,384.0,0.0
8587,16.771484375,268,618.0,0.0
8588,16.7734375,268,617.0,0.0
8589,16.775390625,268,-74.0,0.0
8590,16.77734375,268,-700.0,0.0
8591,16.779296875,268,-1042.0,0.0
8592,16.78125,268,-1188.0,0.0
8593,16.783203125,268,-1074.0,0.0
8594,16.78515625,268,-739.0,0.0
8595,16.787109375,268,-524.0,0.0
8596,16.7890625,268,-438.0,0.0
8597,16.791015625,268,-259.0,0.0
8598,16.79296875,268,-88.0,0.0
8599,16.794921875,268,-90.0,0.0
8600,16.796875,268,-161.0,0.0
8601,16.798828125,268,55.0,0.0
8602,16.80078125,268,620.0,0.0
8603,16.802734375,268,937.0,0.0
8604,16.8046875,268,557.0,0.0
8605,16.806640625,268,263.0,0.0
8606,16.80859375,268,713.0,0.0
8607,16.810546875,268,1188.0,0.0
8608,16.8125,269,966.0,0.0
8609,16.814453125,269,-45.0,0.0
8610,16.81640625,269,-978.0,0.0
8611,16.818359375,269,-1335.0,0.0
8612,16.8203125,269,-1030.0,0.0
8613,16.822265625,269,-602.0,0.0
8614,16.82421875,269,-398.0,0.0
8615,16.826171875,269,-356.0,0.0
8616,16.828125,269,-474.0,0.0
8617,16.830078125,269,-358.0,0.0
8618,16.83203125,269,-51.0,0.0
8619,16.833984375,269,115.0,0.0
8620,16.8359375,269,2.0,0.0
8621,16.837890625,269,-149.0,0.0
8622,16.83984375,269,-117.0,0.0
8623,16.841796875,269,-113.0,0.0
8624,16.84375,269,-169.0,0.0
8625,16.845703125,269,-220.0,0.0
8626,16.84765625,269,-285.0,0.0
8627,16.849609375,269,-177.0,0.0
8628,16.8515625,269,-42.0,0.0
8629,16.853515625,269,82.0,0.0
8630,16.85546875,269,212.0,0.0
8631,16.857421875,269,-106.0,0.0
8632,16.859375,269,-600.0,0.0
8633,16.861328125,269,-653.0,0.0
8634,16.86328125,269,-355.0,0.0
8635,16.865234375,269,-145.0,0.0
8636,16.8671875,269,-125.0,0.0
8637,16.869140625,269,-257.0,0.0
8638,16.87109375,269,-274.0,0.0
8639,16.873046875,269,-120.0,0.0
8640,16.875,270,-33.0,0.0
8641,16.876953125,270,-38.0,0.0
8642,16.87890625,270,-119.0,0.0
8643,16.880859375,270,-246.0,0.0
8644,16.8828125,270,-326.0,0.0
8645,16.884765625,270,-344.0,0.0
8646,16.88671875,270,-279.0,0.0
8647,16.888671875,270,-177.0,0.0
8648,16.890625,270,-84.0,0.0
8649,16.892578125,270,13.0,0.0
8650,16.89453125,270,128.0,0.0
8651,16.896484375,270,147.0,0.0
8652,16.8984375,270,130.0,0.0
8653,16.900390625,270,93.0,0.0
8654,16.90234375,270,33.0,0.0
8655,16.904296875,270,18.0,0.0
8656,16.90625,270,21.0,0.0
8657,16.908203125,270,37.0,0.0
8658,16.91015625,270,49.0,0.0
8659,16.912109375,270,64.0,0.0
8660,16.9140625,270,92.0,0.0
8661,16.916015625,270,107.0,0.0
8662,16.91796875,270,105.0,0.0
8663,16.919921875,270,101.0,0.0
8664,16.921875,270,92.0,0.0
8665,16.923828125,270,131.0,0.0
8666,16.92578125,270,195.0,0.0
8667,16.927734375,270,188.0,0.0
8668,16.9296875,270,136.0,0.0
8669,16.931640625,270,108.0,0.0
8670,16.93359375,270,129.0,0.0
8671,16.935546875,270,139.0,0.0
8672,16.9375,271,116.0,0.0
8673,16.939453125,271,102.0,0.0
8674,16.94140625,271,131.0,0.0
8675,16.943359375,271,131.0,0.0
8676,16.9453125,271,91.0,0.0
8677,16.947265625,271,87.0,0.0
8678,16.94921875,271,105.0,0.0
8679,16.951171875,271,107.0,0.0
8680,16.953125,271,119.0,0.0
8681,16.955078125,271,141.0,0.0
8682,16.95703125,271,157.0,0.0
8683,16.958984375,271,160.0,0.0
8684,16.9609375,271,167.0,0.0
8685,16.962890625,271,196.0,0.0
8686,16.96484375,271,196.0,0.0
8687,16.966796875,271,155.0,0.0
8688,16.96875,271,121.0,0.0
8689,16.970703125,271,108.0,0.0
8690,16.97265625,271,124.0,0.0
8691,16.974609375,271,144.0,0.0
8692,16.9765625,271,135.0,0.0
8693,16.978515625,271,131.0,0.0
8694,16.98046875,271,130.0,0.0
8695,16.982421875,271,134.0,0.0
8696,16.984375,271,151.0,0.0
8697,16.986328125,271,164.0,0.0
8698,16.98828125,271,141.0,0.0
8699,16.990234375,271,101.0,0.0
8700,16.9921875,271,76.0,0.0
8701,16.994140625,271,82.0,0.0
8702,16.99609375,271,128.0,0.0
8703,16.998046875,271,177.0,0.0
8704,17.0,272,172.0,0.0
8705,17.001953125,272,138.0,0.0
8706,17.00390625,272,131.0,0.0
8707,17.005859375,272,162.0,0.0
8708,17.0078125,272,196.0,0.0
8709,17.009765625,272,202.0,0.0
8710,17.01171875,272,179.0,0.0
8711,17.013671875,272,160.0,0.0
8712,17.015625,272,165.0,0.0
8713,17.017578125,272,176.0,0.0
8714,17.01953125,272,165.0,0.0
8715,17.021484375,272,156.0,0.0
8716,17.0234375,272,161.0,0.0
8717,17.025390625,272,146.0,0.0
8718,17.02734375,272,120.0,0.0
8719,17.029296875,272,103.0,0.0
8720,17.03125,272,118.0,0.0
8721,17.033203125,272,132.0,0.0
8722,17.03515625,272,101.0,0.0
8723,17.037109375,272,91.0,0.0
8724,17.0390625,272,145.0,0.0
8725,17.041015625,272,167.0,0.0
8726,17.04296875,272,152.0,0.0
8727,17.044921875,272,145.0,0.0
8728,17.046875,272,133.0,0.0
8729,17.048828125,272,115.0,0.0
8730,17.05078125,272,102.0,0.0
8731,17.052734375,272,105.0,0.0
8732,17.0546875,272,114.0,0.0
8733,17.056640625,272,120.0,0.0
8734,17.05859375,272,133.0,0.0
8735,17.060546875,272,140.0,0.0
8736,17.0625,273,150.0,0.0
8737,17.064453125,273,166.0,0.0
8738,17.06640625,273,204.0,0.0
8739,17.068359375,273,220.0,0.0
8740,17.0703125,273,185.0,0.0
8741,17.072265625,273,166.0,0.0
8742,17.07421875,273,156.0,0.0
8743,17.076171875,273,132.0,0.0
8744,17.078125,273,151.0,0.0
8745,17.080078125,273,197.0,0.0
8746,17.08203125,273,226.0,0.0
8747,17.083984375,273,235.0,0.0
8748,17.0859375,273,208.0,0.0
8749,17.087890625,273,164.0,0.0
8750,17.08984375,273,162.0,0.0
8751,17.091796875,273,160.0,0.0
8752,17.09375,273,155.0,0.0
8753,17.095703125,273,166.0,0.0
8754,17.09765625,273,176.0,0.0
8755,17.099609375,273,150.0,0.0
8756,17.1015625,273,116.0,0.0
8757,17.103515625,273,107.0,0.0
8758,17.10546875,273,88.0,0.0
8759,17.107421875,273,56.0,0.0
8760,17.109375,273,42.0,0.0
8761,17.111328125,273,80.0,0.0
8762,17.11328125,273,98.0,0.0
8763,17.115234375,273,72.0,0.0
8764,17.1171875,273,80.0,0.0
8765,17.119140625,273,109.0,0.0
8766,17.12109375,273,144.0,0.0
8767,17.123046875,273,162.0,0.0
8768,17.125,274,128.0,0.0
8769,17.126953125,274,72.0,0.0
8770,17.12890625,274,33.0,0.0
8771,17.130859375,274,23.0,0.0
8772,17.1328125,274,20.0,0.0
8773,17.134765625,274,27.0,0.0
8774,17.13671875,274,82.0,0.0
8775,17.138671875,274,101.0,0.0
8776,17.140625,274,93.0,0.0
8777,17.142578125,274,97.0,0.0
8778,17.14453125,274,105.0,0.0
8779,17.146484375,274,96.0,0.0
8780,17.1484375,274,71.0,0.0
8781,17.150390625,274,59.0,0.0
8782,17.15234375,274,75.0,0.0
8783,17.154296875,274,100.0,0.0
8784,17.15625,274,114.0,0.0
8785,17.158203125,274,115.0,0.0
8786,17.16015625,274,83.0,0.0
8787,17.162109375,274,68.0,0.0
8788,17.1640625,274,71.0,0.0
8789,17.166015625,274,67.0,0.0
8790,17.16796875,274,69.0,0.0
8791,17.169921875,274,86.0,0.0
8792,17.171875,274,100.0,0.0
8793,17.173828125,274,74.0,0.0
8794,17.17578125,274,76.0,0.0
8795,17.177734375,274,128.0,0.0
8796,17.1796875,274,147.0,0.0
8797,17.181640625,274,133.0,0.0
8798,17.18359375,274,113.0,0.0
8799,17.185546875,274,82.0,0.0
8800,17.1875,275,51.0,0.0
8801,17.189453125,275,19.0,0.0
8802,17.19140625,275,25.0,0.0
8803,17.193359375,275,58.0,0.0
8804,17.1953125,275,92.0,0.0
8805,17.197265625,275,122.0,0.0
8806,17.19921875,275,108.0,0.0
8807,17.201171875,275,66.0,0.0
8808,17.203125,275,81.0,0.0
8809,17.205078125,275,113.0,0.0
8810,17.20703125,275,115.0,0.0
8811,17.208984375,275,75.0,0.0
8812,17.2109375,275,41.0,0.0
8813,17.212890625,275,81.0,0.0
8814,17.21484375,275,106.0,0.0
8815,17.216796875,275,71.0,0.0
8816,17.21875,275,22.0,0.0
8817,17.220703125,275,23.0,0.0
8818,17.22265625,275,97.0,0.0
8819,17.224609375,275,160.0,0.0
8820,17.2265625,275,146.0,0.0
8821,17.228515625,275,104.0,0.0
8822,17.23046875,275,87.0,0.0
8823,17.232421875,275,96.0,0.0
8824,17.234375,275,120.0,0.0
8825,17.236328125,275,139.0,0.0
8826,17.23828125,275,97.0,0.0
8827,17.240234375,275,26.0,0.0
8828,17.2421875,275,-1.0,0.0
8829,17.244140625,275,23.0,0.0
8830,17.24609375,275,82.0,0.0
8831,17.248046875,275,138.0,0.0
8832,17.25,276,137.0,0.0
8833,17.251953125,276,146.0,0.0
8834,17.25390625,276,163.0,0.0
8835,17.255859375,276,162.0,0.0
8836,17.2578125,276,166.0,0.0
8837,17.259765625,276,168.0,0.0
8838,17.26171875,276,160.0,0.0
8839,17.263671875,276,138.0,0.0
8840,17.265625,276,116.0,0.0
8841,17.267578125,276,80.0,0.0
8842,17.26953125,276,44.0,0.0
8843,17.271484375,276,49.0,0.0
8844,17.2734375,276,81.0,0.0
8845,17.275390625,276,103.0,0.0
8846,17.27734375,276,108.0,0.0
8847,17.279296875,276,117.0,0.0
8848,17.28125,276,138.0,0.0
8849,17.283203125,276,164.0,0.0
8850,17.28515625,276,157.0,0.0
8851,17.287109375,276,136.0,0.0
8852,17.2890625,276,119.0,0.0
8853,17.291015625,276,90.0,0.0
8854,17.29296875,276,60.0,0.0
8855,17.294921875,276,69.0,0.0
8856,17.296875,276,61.0,0.0
8857,17.298828125,276,26.0,0.0
8858,17.30078125,276,18.0,0.0
8859,17.302734375,276,43.0,0.0
8860,17.3046875,276,68.0,0.0
8861,17.306640625,276,69.0,0.0
8862,17.30859375,276,85.0,0.0
8863,17.310546875,276,124.0,0.0
8864,17.3125,277,145.0,0.0
8865,17.314453125,277,120.0,0.0
8866,17.31640625,277,73.0,0.0
8867,17.318359375,277,66.0,0.0
8868,17.3203125,277,114.0,0.0
8869,17.322265625,277,130.0,0.0
8870,17.32421875,277,83.0,0.0
8871,17.326171875,277,50.0,0.0
8872,17.328125,277,59.0,0.0
8873,17.330078125,277,52.0,0.0
8874,17.33203125,277,2.0,0.0
8875,17.333984375,277,-5.0,0.0
8876,17.3359375,277,33.0,0.0
8877,17.337890625,277,33.0,0.0
8878,17.33984375,277,-2.0,0.0
8879,17.341796875,277,-25.0,0.0
8880,17.34375,277,-21.0,0.0
8881,17.345703125,277,-8.0,0.0
8882,17.34765625,277,-14.0,0.0
8883,17.349609375,277,-24.0,0.0
8884,17.3515625,277,-10.0,0.0
8885,17.353515625,277,-6.0,0.0
8886,17.35546875,277,-8.0,0.0
8887,17.357421875,277,16.0,0.0
8888,17.359375,277,68.0,0.0
8889,17.361328125,277,105.0,0.0
8890,17.36328125,277,108.0,0.0
8891,17.365234375,277,75.0,0.0
8892,17.3671875,277,42.0,0.0
8893,17.369140625,277,17.0,0.0
8894,17.37109375,277,-3.0,0.0
8895,17.373046875,277,-4.0,0.0
8896,17.375,278,8.0,0.0
8897,17.376953125,278,20.0,0.0
8898,17.37890625,278,48.0,0.0
8899,17.380859375,278,66.0,0.0
8900,17.3828125,278,51.0,0.0
8901,17.384765625,278,44.0,0.0
8902,17.38671875,278,41.0,0.0
8903,17.388671875,278,29.0,0.0
8904,17.390625,278,27.0,0.0
8905,17.392578125,278,27.0,0.0
8906,17.39453125,278,28.0,0.0
8907,17.396484375,278,16.0,0.0
8908,17.3984375,278,-12.0,0.0
8909,17.400390625,278,-33.0,0.0
8910,17.40234375,278,-44.0,0.0
8911,17.404296875,278,-74.0,0.0
8912,17.40625,278,-76.0,0.0
8913,17.408203125,278,-34.0,0.0
8914,17.41015625,278,16.0,0.0
8915,17.412109375,278,53.0,0.0
8916,17.4140625,278,65.0,0.0
8917,17.416015625,278,69.0,0.0
8918,17.41796875,278,81.0,0.0
8919,17.419921875,278,90.0,0.0
8920,17.421875,278,75.0,0.0
8921,17.423828125,278,43.0,0.0
8922,17.42578125,278,-4.0,0.0
8923,17.427734375,278,-52.0,0.0
8924,17.4296875,278,-23.0,0.0
8925,17.431640625,278,26.0,0.0
8926,17.43359375,278,24.0,0.0
8927,17.435546875,278,-25.0,0.0
8928,17.4375,279,-51.0,0.0
8929,17.439453125,279,-19.0,0.0
8930,17.44140625,279,28.0,0.0
8931,17.443359375,279,19.0,0.0
8932,17.4453125,279,-2.0,0.0
8933,17.447265625,279,-23.0,0.0
8934,17.44921875,279,-41.0,0.0
8935,17.451171875,279,-8.0,0.0
8936,17.453125,279,88.0,0.0
8937,17.455078125,279,165.0,0.0
8938,17.45703125,279,114.0,0.0
8939,17.458984375,279,0.0,0.0
8940,17.4609375,279,-89.0,0.0
8941,17.462890625,279,-105.0,0.0
8942,17.46484375,279,-100.0,0.0
8943,17.466796875,279,-87.0,0.0
8944,17.46875,279,-53.0,0.0
8945,17.470703125,279,-29.0,0.0
8946,17.47265625,279,-54.0,0.0
8947,17.474609375,279,-107.0,0.0
8948,17.4765625,279,-104.0,0.0
8949,17.478515625,279,-24.0,0.0
8950,17.48046875,279,100.0,0.0
8951,17.482421875,279,140.0,0.0
8952,17.484375,279,89.0,0.0
8953,17.486328125,279,-24.0,0.0
8954,17.48828125,279,-140.0,0.0
8955,17.490234375,279,-169.0,0.0
8956,17.4921875,279,-125.0,0.0
8957,17.494140625,279,-117.0,0.0
8958,17.49609375,279,-168.0,0.0
8959,17.498046875,279,-249.0,0.0
8960,17.5,280,-316.0,0.0
8961,17.501953125,280,-311.0,0.0
8962,17.50390625,280,-245.0,0.0
8963,17.505859375,280,-157.0,0.0
8964,17.5078125,280,-81.0,0.0
8965,17.509765625,280,-54.0,0.0
8966,17.51171875,280,-62.0,0.0
8967,17.513671875,280,-43.0,0.0
8968,17.515625,280,-6.0,0.0
8969,17.517578125,280,-3.0,0.0
8970,17.51953125,280,-18.0,0.0
8971,17.521484375,280,-20.0,0.0
8972,17.5234375,280,5.0,0.0
8973,17.525390625,280,-4.0,0.0
8974,17.52734375,280,-27.0,0.0
8975,17.529296875,280,-36.0,0.0
8976,17.53125,280,-86.0,0.0
8977,17.533203125,280,-89.0,0.0
8978,17.53515625,280,-33.0,0.0
8979,17.537109375,280,-20.0,0.0
8980,17.5390625,280,-23.0,0.0
8981,17.541015625,280,-1.0,0.0
8982,17.54296875,280,42.0,0.0
8983,17.544921875,280,83.0,0.0
8984,17.546875,280,72.0,0.0
8985,17.548828125,280,-19.0,0.0
8986,17.55078125,280,-135.0,0.0
8987,17.552734375,280,-185.0,0.0
8988,17.5546875,280,-151.0,0.0
8989,17.556640625,280,-88.0,0.0
8990,17.55859375,280,-22.0,0.0
8991,17.560546875,280,-4.0,0.0
8992,17.5625,281,-37.0,0.0
8993,17.564453125,281,0.0,0.0
8994,17.56640625,281,54.0,0.0
8995,17.568359375,281,52.0,0.0
8996,17.5703125,281,40.0,0.0
8997,17.572265625,281,5.0,0.0
8998,17.57421875,281,2.0,0.0
8999,17.576171875,281,49.0,0.0
9000,17.578125,281,32.0,0.0
9001,17.580078125,281,-90.0,0.0
9002,17.58203125,281,-114.0,0.0
9003,17.583984375,281,-24.0,0.0
9004,17.5859375,281,70.0,0.0
9005,17.587890625,281,42.0,0.0
9006,17.58984375,281,-62.0,0.0
9007,17.591796875,281,-37.0,0.0
9008,17.59375,281,102.0,0.0
9009,17.595703125,281,156.0,0.0
9010,17.59765625,281,44.0,0.0
9011,17.599609375,281,-59.0,0.0
9012,17.6015625,281,-61.0,0.0
9013,17.603515625,281,-12.0,0.0
9014,17.60546875,281,91.0,0.0
9015,17.607421875,281,161.0,0.0
9016,17.609375,281,34.0,0.0
9017,17.611328125,281,26.0,0.0
9018,17.61328125,281,249.0,0.0
9019,17.615234375,281,460.0,0.0
9020,17.6171875,281,384.0,0.0
9021,17.619140625,281,165.0,0.0
9022,17.62109375,281,-3.0,0.0
9023,17.623046875,281,-53.0,0.0
9024,17.625,282,-185.0,0.0
9025,17.626953125,282,-326.0,0.0
9026,17.62890625,282,-305.0,0.0
9027,17.630859375,282,-101.0,0.0
9028,17.6328125,282,210.0,0.0
9029,17.634765625,282,539.0,0.0
9030,17.63671875,282,812.0,0.0
9031,17.638671875,282,845.0,0.0
9032,17.640625,282,663.0,0.0
9033,17.642578125,282,380.0,0.0
9034,17.64453125,282,146.0,0.0
9035,17.646484375,282,-213.0,0.0
9036,17.6484375,282,-309.0,0.0
9037,17.650390625,282,-99.0,0.0
9038,17.65234375,282,120.0,0.0
9039,17.654296875,282,76.0,0.0
9040,17.65625,282,-310.0,0.0
9041,17.658203125,282,-393.0,0.0
9042,17.66015625,282,297.0,0.0
9043,17.662109375,282,1042.0,0.0
9044,17.6640625,282,706.0,0.0
9045,17.666015625,282,-396.0,0.0
9046,17.66796875,282,-1030.0,0.0
9047,17.669921875,282,-705.0,0.0
9048,17.671875,282,3.0,0.0
9049,17.673828125,282,165.0,0.0
9050,17.67578125,282,-199.0,0.0
9051,17.677734375,282,-531.0,0.0
9052,17.6796875,282,-333.0,0.0
9053,17.681640625,282,338.0,0.0
9054,17.68359375,282,412.0,0.0
9055,17.685546875,282,-92.0,0.0
9056,17.6875,283,-450.0,0.0
9057,17.689453125,283,-306.0,0.0
9058,17.69140625,283,743.0,0.0
9059,17.693359375,283,1946.0,0.0
9060,17.6953125,283,1920.0,0.0
9061,17.697265625,283,833.0,0.0
9062,17.69921875,283,-342.0,0.0
9063,17.701171875,283,-534.0,0.0
9064,17.703125,283,-230.0,0.0
9065,17.705078125,283,-348.0,0.0
9066,17.70703125,283,-1032.0,0.0
9067,17.708984375,283,-1596.0,0.0
9068,17.7109375,283,-1623.0,0.0
9069,17.712890625,283,-1196.0,0.0
9070,17.71484375,283,-417.0,0.0
9071,17.716796875,283,308.0,0.0
9072,17.71875,283,586.0,0.0
9073,17.720703125,283,562.0,0.0
9074,17.72265625,283,596.0,0.0
9075,17.724609375,283,503.0,0.0
9076,17.7265625,283,192.0,0.0
9077,17.728515625,283,-12.0,0.0
9078,17.73046875,283,-203.0,0.0
9079,17.732421875,283,-364.0,0.0
9080,17.734375,283,-181.0,0.0
9081,17.736328125,283,184.0,0.0
9082,17.73828125,283,105.0,0.0
9083,17.740234375,283,-348.0,0.0
9084,17.7421875,283,-641.0,0.0
9085,17.744140625,283,-642.0,0.0
9086,17.74609375,283,-532.0,0.0
9087,17.748046875,283,-395.0,0.0
9088,17.75,284,-158.0,0.0
9089,17.751953125,284,-125.0,0.0
9090,17.75390625,284,-265.0,0.0
9091,17.755859375,284,-249.0,0.0
9092,17.7578125,284,-124.0,0.0
9093,17.759765625,284,-54.0,0.0
9094,17.76171875,284,20.0,0.0
9095,17.763671875,284,93.0,0.0
9096,17.765625,284,105.0,0.0
9097,17.767578125,284,81.0,0.0
9098,17.76953125,284,67.0,0.0
9099,17.771484375,284,39.0,0.0
9100,17.7734375,284,11.0,0.0
9101,17.775390625,284,21.0,0.0
9102,17.77734375,284,35.0,0.0
9103,17.779296875,284,27.0,0.0
9104,17.78125,284,45.0,0.0
9105,17.783203125,284,42.0,0.0
9106,17.78515625,284,35.0,0.0
9107,17.787109375,284,56.0,0.0
9108,17.7890625,284,96.0,0.0
9109,17.791015625,284,135.0,0.0
9110,17.79296875,284,135.0,0.0
9111,17.794921875,284,89.0,0.0
9112,17.796875,284,60.0,0.0
9113,17.798828125,284,74.0,0.0
9114,17.80078125,284,100.0,0.0
9115,17.802734375,284,103.0,0.0
9116,17.8046875,284,104.0,0.0
9117,17.806640625,284,98.0,0.0
9118,17.80859375,284,84.0,0.0
9119,17.810546875,284,60.0,0.0
9120,17.8125,285,24.0,0.0
9121,17.814453125,285,13.0,0.0
9122,17.81640625,285,55.0,0.0
9123,17.818359375,285,99.0,0.0
9124,17.8203125,285,104.0,0.0
9125,17.822265625,285,98.0,0.0
9126,17.82421875,285,83.0,0.0
9127,17.826171875,285,72.0,0.0
9128,17.828125,285,88.0,0.0
9129,17.830078125,285,86.0,0.0
9130,17.83203125,285,36.0,0.0
9131,17.833984375,285,13.0,0.0
9132,17.8359375,285,48.0,0.0
9133,17.837890625,285,82.0,0.0
9134,17.83984375,285,104.0,0.0
9135,17.841796875,285,128.0,0.0
9136,17.84375,285,135.0,0.0
9137,17.845703125,285,131.0,0.0
9138,17.84765625,285,107.0,0.0
9139,17.849609375,285,98.0,0.0
9140,17.8515625,285,92.0,0.0
9141,17.853515625,285,73.0,0.0
9142,17.85546875,285,84.0,0.0
9143,17.857421875,285,120.0,0.0
9144,17.859375,285,128.0,0.0
9145,17.861328125,285,105.0,0.0
9146,17.86328125,285,86.0,0.0
9147,17.865234375,285,88.0,0.0
9148,17.8671875,285,103.0,0.0
9149,17.869140625,285,103.0,0.0
9150,17.87109375,285,89.0,0.0
9151,17.873046875,285,84.0,0.0
9152,17.875,286,73.0,0.0
9153,17.876953125,286,58.0,0.0
9154,17.87890625,286,35.0,0.0
9155,17.880859375,286,23.0,0.0
9156,17.8828125,286,71.0,0.0
9157,17.884765625,286,136.0,0.0
9158,17.88671875,286,136.0,0.0
9159,17.888671875,286,99.0,0.0
9160,17.890625,286,86.0,0.0
9161,17.892578125,286,104.0,0.0
9162,17.89453125,286,123.0,0.0
9163,17.896484375,286,128.0,0.0
9164,17.8984375,286,120.0,0.0
9165,17.900390625,286,84.0,0.0
9166,17.90234375,286,35.0,0.0
9167,17.904296875,286,39.0,0.0
9168,17.90625,286,81.0,0.0
9169,17.908203125,286,97.0,0.0
9170,17.91015625,286,90.0,0.0
9171,17.912109375,286,88.0,0.0
9172,17.9140625,286,104.0,0.0
9173,17.916015625,286,102.0,0.0
9174,17.91796875,286,70.0,0.0
9175,17.919921875,286,61.0,0.0
9176,17.921875,286,96.0,0.0
9177,17.923828125,286,131.0,0.0
9178,17.92578125,286,132.0,0.0
9179,17.927734375,286,105.0,0.0
9180,17.9296875,286,102.0,0.0
9181,17.931640625,286,106.0,0.0
9182,17.93359375,286,117.0,0.0
9183,17.935546875,286,124.0,0.0
9184,17.9375,287,108.0,0.0
9185,17.939453125,287,90.0,0.0
9186,17.94140625,287,74.0,0.0
9187,17.943359375,287,77.0,0.0
9188,17.9453125,287,101.0,0.0
9189,17.947265625,287,107.0,0.0
9190,17.94921875,287,103.0,0.0
9191,17.951171875,287,88.0,0.0
9192,17.953125,287,106.0,0.0
9193,17.955078125,287,138.0,0.0
9194,17.95703125,287,120.0,0.0
9195,17.958984375,287,76.0,0.0
9196,17.9609375,287,52.0,0.0
9197,17.962890625,287,58.0,0.0
9198,17.96484375,287,81.0,0.0
9199,17.966796875,287,66.0,0.0
9200,17.96875,287,21.0,0.0
9201,17.970703125,287,-5.0,0.0
9202,17.97265625,287,38.0,0.0
9203,17.974609375,287,103.0,0.0
9204,17.9765625,287,106.0,0.0
9205,17.978515625,287,67.0,0.0
9206,17.98046875,287,57.0,0.0
9207,17.982421875,287,102.0,0.0
9208,17.984375,287,118.0,0.0
9209,17.986328125,287,84.0,0.0
9210,17.98828125,287,42.0,0.0
9211,17.990234375,287,28.0,0.0
9212,17.9921875,287,38.0,0.0
9213,17.994140625,287,60.0,0.0
9214,17.99609375,287,70.0,0.0
9215,17.998046875,287,54.0,0.0
9216,18.0,288,36.0,0.0
9217,18.001953125,288,58.0,0.0
9218,18.00390625,288,104.0,0.0
9219,18.005859375,288,107.0,0.0
9220,18.0078125,288,77.0,0.0
9221,18.009765625,288,43.0,0.0
9222,18.01171875,288,2.0,0.0
9223,18.013671875,288,-8.0,0.0
9224,18.015625,288,9.0,0.0
9225,18.017578125,288,28.0,0.0
9226,18.01953125,288,56.0,0.0
9227,18.021484375,288,72.0,0.0
9228,18.0234375,288,70.0,0.0
9229,18.025390625,288,61.0,0.0
9230,18.02734375,288,61.0,0.0
9231,18.029296875,288,96.0,0.0
9232,18.03125,288,115.0,0.0
9233,18.033203125,288,102.0,0.0
9234,18.03515625,288,101.0,0.0
9235,18.037109375,288,108.0,0.0
9236,18.0390625,288,106.0,0.0
9237,18.041015625,288,101.0,0.0
9238,18.04296875,288,102.0,0.0
9239,18.044921875,288,104.0,0.0
9240,18.046875,288,106.0,0.0
9241,18.048828125,288,92.0,0.0
9242,18.05078125,288,81.0,0.0
9243,18.052734375,288,74.0,0.0
9244,18.0546875,288,88.0,0.0
9245,18.056640625,288,133.0,0.0
9246,18.05859375,288,150.0,0.0
9247,18.060546875,288,136.0,0.0
9248,18.0625,289,120.0,0.0
9249,18.064453125,289,107.0,0.0
9250,18.06640625,289,115.0,0.0
9251,18.068359375,289,124.0,0.0
9252,18.0703125,289,88.0,0.0
9253,18.072265625,289,52.0,0.0
9254,18.07421875,289,18.0,0.0
9255,18.076171875,289,11.0,0.0
9256,18.078125,289,57.0,0.0
9257,18.080078125,289,84.0,0.0
9258,18.08203125,289,60.0,0.0
9259,18.083984375,289,26.0,0.0
9260,18.0859375,289,33.0,0.0
9261,18.087890625,289,76.0,0.0
9262,18.08984375,289,100.0,0.0
9263,18.091796875,289,89.0,0.0
9264,18.09375,289,89.0,0.0
9265,18.095703125,289,90.0,0.0
9266,18.09765625,289,51.0,0.0
9267,18.099609375,289,12.0,0.0
9268,18.1015625,289,50.0,0.0
9269,18.103515625,289,116.0,0.0
9270,18.10546875,289,140.0,0.0
9271,18.107421875,289,139.0,0.0
9272,18.109375,289,149.0,0.0
9273,18.111328125,289,163.0,0.0
9274,18.11328125,289,168.0,0.0
9275,18.115234375,289,169.0,0.0
9276,18.1171875,289,163.0,0.0
9277,18.119140625,289,145.0,0.0
9278,18.12109375,289,112.0,0.0
9279,18.123046875,289,67.0,0.0
9280,18.125,290,44.0,0.0
9281,18.126953125,290,36.0,0.0
9282,18.12890625,290,29.0,0.0
9283,18.130859375,290,41.0,0.0
9284,18.1328125,290,39.0,0.0
9285,18.134765625,290,6.0,0.0
9286,18.13671875,290,-23.0,0.0
9287,18.138671875,290,-34.0,0.0
9288,18.140625,290,-36.0,0.0
9289,18.142578125,290,-17.0,0.0
9290,18.14453125,290,-11.0,0.0
9291,18.146484375,290,-30.0,0.0
9292,18.1484375,290,-37.0,0.0
9293,18.150390625,290,-10.0,0.0
9294,18.15234375,290,11.0,0.0
9295,18.154296875,290,24.0,0.0
9296,18.15625,290,13.0,0.0
9297,18.158203125,290,-5.0,0.0
9298,18.16015625,290,-7.0,0.0
9299,18.162109375,290,7.0,0.0
9300,18.1640625,290,22.0,0.0
9301,18.166015625,290,42.0,0.0
9302,18.16796875,290,49.0,0.0
9303,18.169921875,290,43.0,0.0
9304,18.171875,290,23.0,0.0
9305,18.173828125,290,28.0,0.0
9306,18.17578125,290,37.0,0.0
9307,18.177734375,290,45.0,0.0
9308,18.1796875,290,59.0,0.0
9309,18.181640625,290,36.0,0.0
9310,18.18359375,290,19.0,0.0
9311,18.185546875,290,41.0,0.0
9312,18.1875,291,61.0,0.0
9313,18.189453125,291,69.0,0.0
9314,18.19140625,291,70.0,0.0
9315,18.193359375,291,90.0,0.0
9316,18.1953125,291,139.0,0.0
9317,18.197265625,291,146.0,0.0
9318,18.19921875,291,98.0,0.0
9319,18.201171875,291,54.0,0.0
9320,18.203125,291,65.0,0.0
9321,18.205078125,291,102.0,0.0
9322,18.20703125,291,102.0,0.0
9323,18.208984375,291,70.0,0.0
9324,18.2109375,291,8.0,0.0
9325,18.212890625,291,-23.0,0.0
9326,18.21484375,291,-8.0,0.0
9327,18.216796875,291,5.0,0.0
9328,18.21875,291,38.0,0.0
9329,18.220703125,291,69.0,0.0
9330,18.22265625,291,75.0,0.0
9331,18.224609375,291,42.0,0.0
9332,18.2265625,291,20.0,0.0
9333,18.228515625,291,27.0,0.0
9334,18.23046875,291,40.0,0.0
9335,18.232421875,291,59.0,0.0
9336,18.234375,291,77.0,0.0
9337,18.236328125,291,65.0,0.0
9338,18.23828125,291,43.0,0.0
9339,18.240234375,291,35.0,0.0
9340,18.2421875,291,36.0,0.0
9341,18.244140625,291,64.0,0.0
9342,18.24609375,291,59.0,0.0
9343,18.248046875,291,17.0,0.0
9344,18.25,292,-3.0,0.0
9345,18.251953125,292,0.0,0.0
9346,18.25390625,292,18.0,0.0
9347,18.255859375,292,40.0,0.0
9348,18.2578125,292,41.0,0.0
9349,18.259765625,292,22.0,0.0
9350,18.26171875,292,45.0,0.0
9351,18.263671875,292,113.0,0.0
9352,18.265625,292,131.0,0.0
9353,18.267578125,292,102.0,0.0
9354,18.26953125,292,90.0,0.0
9355,18.271484375,292,97.0,0.0
9356,18.2734375,292,90.0,0.0
9357,18.275390625,292,51.0,0.0
9358,18.27734375,292,8.0,0.0
9359,18.279296875,292,-24.0,0.0
9360,18.28125,292,-36.0,0.0
9361,18.283203125,292,-26.0,0.0
9362,18.28515625,292,-7.0,0.0
9363,18.287109375,292,8.0,0.0
9364,18.2890625,292,23.0,0.0
9365,18.291015625,292,28.0,0.0
9366,18.29296875,292,19.0,0.0
9367,18.294921875,292,43.0,0.0
9368,18.296875,292,96.0,0.0
9369,18.298828125,292,90.0,0.0
9370,18.30078125,292,48.0,0.0
9371,18.302734375,292,-11.0,0.0
9372,18.3046875,292,-39.0,0.0
9373,18.306640625,292,-26.0,0.0
9374,18.30859375,292,-8.0,0.0
9375,18.310546875,292,10.0,0.0
9376,18.3125,293,38.0,0.0
9377,18.314453125,293,34.0,0.0
9378,18.31640625,293,5.0,0.0
9379,18.318359375,293,-8.0,0.0
9380,18.3203125,293,-4.0,0.0
9381,18.322265625,293,29.0,0.0
9382,18.32421875,293,41.0,0.0
9383,18.326171875,293,28.0,0.0
9384,18.328125,293,41.0,0.0
9385,18.330078125,293,44.0,0.0
9386,18.33203125,293,3.0,0.0
9387,18.333984375,293,9.0,0.0
9388,18.3359375,293,54.0,0.0
9389,18.337890625,293,102.0,0.0
9390,18.33984375,293,117.0,0.0
9391,18.341796875,293,65.0,0.0
9392,18.34375,293,36.0,0.0
9393,18.345703125,293,73.0,0.0
9394,18.34765625,293,98.0,0.0
9395,18.349609375,293,33.0,0.0
9396,18.3515625,293,7.0,0.0
9397,18.353515625,293,44.0,0.0
9398,18.35546875,293,118.0,0.0
9399,18.357421875,293,102.0,0.0
9400,18.359375,293,11.0,0.0
9401,18.361328125,293,-11.0,0.0
9402,18.36328125,293,16.0,0.0
9403,18.365234375,293,17.0,0.0
9404,18.3671875,293,-1.0,0.0
9405,18.369140625,293,-8.0,0.0
9406,18.37109375,293,3.0,0.0
9407,18.373046875,293,0.0,0.0
9408,18.375,294,7.0,0.0
9409,18.376953125,294,56.0,0.0
9410,18.37890625,294,37.0,0.0
9411,18.380859375,294,3.0,0.0
9412,18.3828125,294,12.0,0.0
9413,18.384765625,294,54.0,0.0
9414,18.38671875,294,86.0,0.0
9415,18.388671875,294,114.0,0.0
9416,18.390625,294,243.0,0.0
9417,18.392578125,294,349.0,0.0
9418,18.39453125,294,264.0,0.0
9419,18.396484375,294,54.0,0.0
9420,18.3984375,294,33.0,0.0
9421,18.400390625,294,166.0,0.0
9422,18.40234375,294,171.0,0.0
9423,18.404296875,294,162.0,0.0
9424,18.40625,294,119.0,0.0
9425,18.408203125,294,138.0,0.0
9426,18.41015625,294,23.0,0.0
9427,18.412109375,294,-91.0,0.0
9428,18.4140625,294,67.0,0.0
9429,18.416015625,294,246.0,0.0
9430,18.41796875,294,226.0,0.0
9431,18.419921875,294,-61.0,0.0
9432,18.421875,294,-66.0,0.0
9433,18.423828125,294,212.0,0.0
9434,18.42578125,294,26.0,0.0
9435,18.427734375,294,-476.0,0.0
9436,18.4296875,294,-441.0,0.0
9437,18.431640625,294,298.0,0.0
9438,18.43359375,294,971.0,0.0
9439,18.435546875,294,552.0,0.0
9440,18.4375,295,-633.0,0.0
9441,18.439453125,295,-1095.0,0.0
9442,18.44140625,295,-708.0,0.0
9443,18.443359375,295,-168.0,0.0
9444,18.4453125,295,257.0,0.0
9445,18.447265625,295,369.0,0.0
9446,18.44921875,295,246.0,0.0
9447,18.451171875,295,-45.0,0.0
9448,18.453125,295,-278.0,0.0
9449,18.455078125,295,-70.0,0.0
9450,18.45703125,295,459.0,0.0
9451,18.458984375,295,538.0,0.0
9452,18.4609375,295,-221.0,0.0
9453,18.462890625,295,-996.0,0.0
9454,18.46484375,295,-1131.0,0.0
9455,18.466796875,295,-697.0,0.0
9456,18.46875,295,29.0,0.0
9457,18.470703125,295,1147.0,0.0
9458,18.47265625,295,2047.0,0.0
9459,18.474609375,295,2047.0,0.0
9460,18.4765625,295,1385.0,0.0
9461,18.478515625,295,512.0,0.0
9462,18.48046875,295,339.0,0.0
9463,18.482421875,295,-161.0,0.0
9464,18.484375,295,-956.0,0.0
9465,18.486328125,295,-1805.0,0.0
9466,18.48828125,295,-2048.0,0.0
9467,18.490234375,295,-1778.0,0.0
9468,18.4921875,295,-1139.0,0.0
9469,18.494140625,295,-673.0,0.0
9470,18.49609375,295,-82.0,0.0
9471,18.498046875,295,497.0,0.0
9472,18.5,296,585.0,0.0
9473,18.501953125,296,198.0,0.0
9474,18.50390625,296,-98.0,0.0
9475,18.505859375,296,103.0,0.0
9476,18.5078125,296,221.0,0.0
9477,18.509765625,296,231.0,0.0
9478,18.51171875,296,394.0,0.0
9479,18.513671875,296,403.0,0.0
9480,18.515625,296,53.0,0.0
9481,18.517578125,296,-317.0,0.0
9482,18.51953125,296,-426.0,0.0
9483,18.521484375,296,-430.0,0.0
9484,18.5234375,296,-663.0,0.0
9485,18.525390625,296,-788.0,0.0
9486,18.52734375,296,-433.0,0.0
9487,18.529296875,296,-234.0,0.0
9488,18.53125,296,-451.0,0.0
9489,18.533203125,296,-365.0,0.0
9490,18.53515625,296,-38.0,0.0
9491,18.537109375,296,83.0,0.0
9492,18.5390625,296,91.0,0.0
9493,18.541015625,296,74.0,0.0
9494,18.54296875,296,-277.0,0.0
9495,18.544921875,296,-712.0,0.0
9496,18.546875,296,-852.0,0.0
9497,18.548828125,296,-620.0,0.0
9498,18.55078125,296,-190.0,0.0
9499,18.552734375,296,72.0,0.0
9500,18.5546875,296,42.0,0.0
9501,18.556640625,296,-77.0,0.0
9502,18.55859375,296,-122.0,0.0
9503,18.560546875,296,-201.0,0.0
9504,18.5625,297,-100.0,0.0
9505,18.564453125,297,26.0,0.0
9506,18.56640625,297,213.0,0.0
9507,18.568359375,297,356.0,0.0
9508,18.5703125,297,100.0,0.0
9509,18.572265625,297,-318.0,0.0
9510,18.57421875,297,-425.0,0.0
9511,18.576171875,297,-187.0,0.0
9512,18.578125,297,55.0,0.0
9513,18.580078125,297,183.0,0.0
9514,18.58203125,297,251.0,0.0
9515,18.583984375,297,250.0,0.0
9516,18.5859375,297,108.0,0.0
9517,18.587890625,297,-35.0,0.0
9518,18.58984375,297,-108.0,0.0
9519,18.591796875,297,-86.0,0.0
9520,18.59375,297,-60.0,0.0
9521,18.595703125,297,-177.0,0.0
9522,18.59765625,297,-209.0,0.0
9523,18.599609375,297,-70.0,0.0
9524,18.6015625,297,13.0,0.0
9525,18.603515625,297,-52.0,0.0
9526,18.60546875,297,-120.0,0.0
9527,18.607421875,297,-125.0,0.0
9528,18.609375,297,-86.0,0.0
9529,18.611328125,297,-58.0,0.0
9530,18.61328125,297,-13.0,0.0
9531,18.615234375,297,48.0,0.0
9532,18.6171875,297,73.0,0.0
9533,18.619140625,297,96.0,0.0
9534,18.62109375,297,100.0,0.0
9535,18.623046875,297,89.0,0.0
9536,18.625,298,88.0,0.0
9537,18.626953125,298,118.0,0.0
9538,18.62890625,298,146.0,0.0
9539,18.630859375,298,112.0,0.0
9540,18.6328125,298,98.0,0.0
9541,18.634765625,298,119.0,0.0
9542,18.63671875,298,163.0,0.0
9543,18.638671875,298,189.0,0.0
9544,18.640625,298,224.0,0.0
9545,18.642578125,298,228.0,0.0
9546,18.64453125,298,177.0,0.0
9547,18.646484375,298,167.0,0.0
9548,18.6484375,298,200.0,0.0
9549,18.650390625,298,170.0,0.0
9550,18.65234375,298,125.0,0.0
9551,18.654296875,298,86.0,0.0
9552,18.65625,298,72.0,0.0
9553,18.658203125,298,113.0,0.0
9554,18.66015625,298,146.0,0.0
9555,18.662109375,298,145.0,0.0
9556,18.6640625,298,155.0,0.0
9557,18.666015625,298,192.0,0.0
9558,18.66796875,298,185.0,0.0
9559,18.669921875,298,171.0,0.0
9560,18.671875,298,180.0,0.0
9561,18.673828125,298,155.0,0.0
9562,18.67578125,298,133.0,0.0
9563,18.677734375,298,179.0,0.0
9564,18.6796875,298,196.0,0.0
9565,18.681640625,298,180.0,0.0
9566,18.68359375,298,172.0,0.0
9567,18.685546875,298,187.0,0.0
9568,18.6875,299,210.0,0.0
9569,18.689453125,299,167.0,0.0
9570,18.69140625,299,82.0,0.0
9571,18.693359375,299,42.0,0.0
9572,18.6953125,299,60.0,0.0
9573,18.697265625,299,82.0,0.0
9574,18.69921875,299,96.0,0.0
9575,18.701171875,299,98.0,0.0
9576,18.703125,299,128.0,0.0
9577,18.705078125,299,180.0,0.0
9578,18.70703125,299,160.0,0.0
9579,18.708984375,299,72.0,0.0
9580,18.7109375,299,25.0,0.0
9581,18.712890625,299,57.0,0.0
9582,18.71484375,299,100.0,0.0
9583,18.716796875,299,108.0,0.0
9584,18.71875,299,102.0,0.0
9585,18.720703125,299,108.0,0.0
9586,18.72265625,299,130.0,0.0
9587,18.724609375,299,125.0,0.0
9588,18.7265625,299,123.0,0.0
9589,18.728515625,299,130.0,0.0
9590,18.73046875,299,101.0,0.0
9591,18.732421875,299,96.0,0.0
9592,18.734375,299,123.0,0.0
9593,18.736328125,299,137.0,0.0
9594,18.73828125,299,120.0,0.0
9595,18.740234375,299,112.0,0.0
9596,18.7421875,299,117.0,0.0
9597,18.744140625,299,124.0,0.0
9598,18.74609375,299,177.0,0.0
9599,18.748046875,299,198.0,0.0
9600,18.75,300,162.0,0.0
9601,18.751953125,300,148.0,0.0
9602,18.75390625,300,150.0,0.0
9603,18.755859375,300,128.0,0.0
9604,18.7578125,300,104.0,0.0
9605,18.759765625,300,92.0,0.0
9606,18.76171875,300,101.0,0.0
9607,18.763671875,300,130.0,33553.0
9608,18.765625,300,130.0,33554.0
9609,18.767578125,300,157.0,0.0
9610,18.76953125,300,162.0,0.0
9611,18.771484375,300,133.0,0.0
9612,18.7734375,300,117.0,0.0
9613,18.775390625,300,134.0,0.0
9614,18.77734375,300,164.0,0.0
9615,18.779296875,300,181.0,0.0
9616,18.78125,300,188.0,0.0
9617,18.783203125,300,204.0,0.0
9618,18.78515625,300,213.0,0.0
9619,18.787109375,300,229.0,0.0
9620,18.7890625,300,252.0,0.0
9621,18.791015625,300,232.0,0.0
9622,18.79296875,300,194.0,0.0
9623,18.794921875,300,176.0,0.0
9624,18.796875,300,135.0,0.0
9625,18.798828125,300,75.0,0.0
9626,18.80078125,300,16.0,0.0
9627,18.802734375,300,-35.0,0.0
9628,18.8046875,300,1.0,0.0
9629,18.806640625,300,133.0,0.0
9630,18.80859375,300,152.0,0.0
9631,18.810546875,300,4.0,0.0
9632,18.8125,301,-81.0,0.0
9633,18.814453125,301,-29.0,0.0
9634,18.81640625,301,88.0,0.0
9635,18.818359375,301,166.0,0.0
9636,18.8203125,301,134.0,0.0
9637,18.822265625,301,96.0,0.0
9638,18.82421875,301,89.0,0.0
9639,18.826171875,301,99.0,0.0
9640,18.828125,301,152.0,0.0
9641,18.830078125,301,231.0,0.0
9642,18.83203125,301,242.0,0.0
9643,18.833984375,301,177.0,0.0
9644,18.8359375,301,82.0,0.0
9645,18.837890625,301,13.0,0.0
9646,18.83984375,301,19.0,0.0
9647,18.841796875,301,97.0,0.0
9648,18.84375,301,196.0,0.0
9649,18.845703125,301,204.0,0.0
9650,18.84765625,301,147.0,0.0
9651,18.849609375,301,136.0,0.0
9652,18.8515625,301,151.0,0.0
9653,18.853515625,301,140.0,0.0
9654,18.85546875,301,117.0,0.0
9655,18.857421875,301,120.0,0.0
9656,18.859375,301,144.0,0.0
9657,18.861328125,301,116.0,0.0
9658,18.86328125,301,73.0,0.0
9659,18.865234375,301,120.0,0.0
9660,18.8671875,301,179.0,0.0
9661,18.869140625,301,186.0,0.0
9662,18.87109375,301,148.0,0.0
9663,18.873046875,301,129.0,0.0
9664,18.875,302,119.0,0.0
9665,18.876953125,302,66.0,0.0
9666,18.87890625,302,-10.0,0.0
9667,18.880859375,302,-50.0,0.0
9668,18.8828125,302,-6.0,0.0
9669,18.884765625,302,50.0,0.0
9670,18.88671875,302,106.0,0.0
9671,18.888671875,302,98.0,0.0
9672,18.890625,302,72.0,0.0
9673,18.892578125,302,85.0,0.0
9674,18.89453125,302,92.0,0.0
9675,18.896484375,302,89.0,0.0
9676,18.8984375,302,90.0,0.0
9677,18.900390625,302,114.0,0.0
9678,18.90234375,302,139.0,0.0
9679,18.904296875,302,76.0,0.0
9680,18.90625,302,-24.0,0.0
9681,18.908203125,302,-66.0,0.0
9682,18.91015625,302,-38.0,0.0
9683,18.912109375,302,-33.0,0.0
9684,18.9140625,302,-45.0,0.0
9685,18.916015625,302,-57.0,0.0
9686,18.91796875,302,-78.0,0.0
9687,18.919921875,302,-66.0,0.0
9688,18.921875,302,-30.0,0.0
9689,18.923828125,302,71.0,0.0
9690,18.92578125,302,144.0,0.0
9691,18.927734375,302,76.0,0.0
9692,18.9296875,302,44.0,0.0
9693,18.931640625,302,99.0,0.0
9694,18.93359375,302,163.0,0.0
9695,18.935546875,302,123.0,0.0
9696,18.9375,303,-25.0,0.0
9697,18.939453125,303,-137.0,0.0
9698,18.94140625,303,-84.0,0.0
9699,18.943359375,303,5.0,0.0
9700,18.9453125,303,-13.0,0.0
9701,18.947265625,303,-81.0,0.0
9702,18.94921875,303,-136.0,0.0
9703,18.951171875,303,-142.0,0.0
9704,18.953125,303,-72.0,0.0
9705,18.955078125,303,-61.0,0.0
9706,18.95703125,303,-71.0,0.0
9707,18.958984375,303,-33.0,0.0
9708,18.9609375,303,53.0,0.0
9709,18.962890625,303,51.0,0.0
9710,18.96484375,303,2.0,0.0
9711,18.966796875,303,-11.0,0.0
9712,18.96875,303,9.0,0.0
9713,18.970703125,303,42.0,0.0
9714,18.97265625,303,113.0,0.0
9715,18.974609375,303,115.0,0.0
9716,18.9765625,303,12.0,0.0
9717,18.978515625,303,-3.0,0.0
9718,18.98046875,303,24.0,0.0
9719,18.982421875,303,-3.0,0.0
9720,18.984375,303,-98.0,0.0
9721,18.986328125,303,-163.0,0.0
9722,18.98828125,303,-42.0,0.0
9723,18.990234375,303,164.0,0.0
9724,18.9921875,303,90.0,0.0
9725,18.994140625,303,-135.0,0.0
9726,18.99609375,303,-166.0,0.0
9727,18.998046875,303,-26.0,0.0
9728,19.0,304,100.0,0.0
9729,19.001953125,304,122.0,0.0
9730,19.00390625,304,100.0,0.0
9731,19.005859375,304,44.0,0.0
9732,19.0078125,304,44.0,0.0
9733,19.009765625,304,4.0,0.0
9734,19.01171875,304,-55.0,0.0
9735,19.013671875,304,32.0,0.0
9736,19.015625,304,113.0,0.0
9737,19.017578125,304,-25.0,0.0
9738,19.01953125,304,-151.0,0.0
9739,19.021484375,304,-50.0,0.0
9740,19.0234375,304,57.0,0.0
9741,19.025390625,304,50.0,0.0
9742,19.02734375,304,85.0,0.0
9743,19.029296875,304,96.0,0.0
9744,19.03125,304,163.0,0.0
9745,19.033203125,304,170.0,0.0
9746,19.03515625,304,168.0,0.0
9747,19.037109375,304,282.0,0.0
9748,19.0390625,304,453.0,0.0
9749,19.041015625,304,450.0,0.0
9750,19.04296875,304,186.0,0.0
9751,19.044921875,304,-89.0,0.0
9752,19.046875,304,-241.0,0.0
9753,19.048828125,304,-134.0,0.0
9754,19.05078125,304,80.0,0.0
9755,19.052734375,304,289.0,0.0
9756,19.0546875,304,68.0,0.0
9757,19.056640625,304,-434.0,0.0
9758,19.05859375,304,-474.0,0.0
9759,19.060546875,304,-102.0,0.0
9760,19.0625,305,48.0,0.0
9761,19.064453125,305,-91.0,0.0
9762,19.06640625,305,-227.0,0.0
9763,19.068359375,305,-178.0,0.0
9764,19.0703125,305,-125.0,0.0
9765,19.072265625,305,-109.0,0.0
9766,19.07421875,305,57.0,0.0
9767,19.076171875,305,659.0,0.0
9768,19.078125,305,1258.0,0.0
9769,19.080078125,305,1205.0,0.0
9770,19.08203125,305,551.0,0.0
9771,19.083984375,305,-215.0,0.0
9772,19.0859375,305,-186.0,0.0
9773,19.087890625,305,259.0,0.0
9774,19.08984375,305,311.0,0.0
9775,19.091796875,305,169.0,0.0
9776,19.09375,305,-49.0,0.0
9777,19.095703125,305,-129.0,0.0
9778,19.09765625,305,301.0,0.0
9779,19.099609375,305,684.0,0.0
9780,19.1015625,305,487.0,0.0
9781,19.103515625,305,51.0,0.0
9782,19.10546875,305,-202.0,0.0
9783,19.107421875,305,-231.0,0.0
9784,19.109375,305,-402.0,0.0
9785,19.111328125,305,-660.0,0.0
9786,19.11328125,305,-812.0,0.0
9787,19.115234375,305,-659.0,0.0
9788,19.1171875,305,-392.0,0.0
9789,19.119140625,305,-75.0,0.0
9790,19.12109375,305,171.0,0.0
9791,19.123046875,305,108.0,0.0
9792,19.125,306,-183.0,0.0
9793,19.126953125,306,-164.0,0.0
9794,19.12890625,306,184.0,0.0
9795,19.130859375,306,291.0,0.0
9796,19.1328125,306,-49.0,0.0
9797,19.134765625,306,-427.0,0.0
9798,19.13671875,306,-242.0,0.0
9799,19.138671875,306,233.0,0.0
9800,19.140625,306,506.0,0.0
9801,19.142578125,306,368.0,0.0
9802,19.14453125,306,237.0,0.0
9803,19.146484375,306,363.0,0.0
9804,19.1484375,306,118.0,0.0
9805,19.150390625,306,-279.0,0.0
9806,19.15234375,306,-153.0,0.0
9807,19.154296875,306,75.0,0.0
9808,19.15625,306,-248.0,0.0
9809,19.158203125,306,-664.0,0.0
9810,19.16015625,306,-873.0,0.0
9811,19.162109375,306,-856.0,0.0
9812,19.1640625,306,-549.0,0.0
9813,19.166015625,306,-259.0,0.0
9814,19.16796875,306,-90.0,0.0
9815,19.169921875,306,-28.0,0.0
9816,19.171875,306,-1.0,0.0
9817,19.173828125,306,-18.0,0.0
9818,19.17578125,306,41.0,0.0
9819,19.177734375,306,93.0,0.0
9820,19.1796875,306,72.0,0.0
9821,19.181640625,306,82.0,0.0
9822,19.18359375,306,-62.0,0.0
9823,19.185546875,306,-308.0,0.0
9824,19.1875,307,-452.0,0.0
9825,19.189453125,307,-451.0,0.0
9826,19.19140625,307,-422.0,0.0
9827,19.193359375,307,-222.0,0.0
9828,19.1953125,307,102.0,0.0
9829,19.197265625,307,109.0,0.0
9830,19.19921875,307,-60.0,0.0
9831,19.201171875,307,-124.0,0.0
9832,19.203125,307,-1.0,0.0
9833,19.205078125,307,266.0,0.0
9834,19.20703125,307,208.0,0.0
9835,19.208984375,307,-103.0,0.0
9836,19.2109375,307,-206.0,0.0
9837,19.212890625,307,-235.0,0.0
9838,19.21484375,307,-268.0,0.0
9839,19.216796875,307,-206.0,0.0
9840,19.21875,307,-78.0,0.0
9841,19.220703125,307,-41.0,0.0
9842,19.22265625,307,-76.0,0.0
9843,19.224609375,307,-12.0,0.0
9844,19.2265625,307,112.0,0.0
9845,19.228515625,307,153.0,0.0
9846,19.23046875,307,87.0,0.0
9847,19.232421875,307,38.0,0.0
9848,19.234375,307,20.0,0.0
9849,19.236328125,307,37.0,0.0
9850,19.23828125,307,72.0,0.0
9851,19.240234375,307,45.0,0.0
9852,19.2421875,307,4.0,0.0
9853,19.244140625,307,61.0,0.0
9854,19.24609375,307,202.0,0.0
9855,19.248046875,307,245.0,0.0
9856,19.25,308,177.0,0.0
9857,19.251953125,308,103.0,0.0
9858,19.25390625,308,117.0,0.0
9859,19.255859375,308,97.0,0.0
9860,19.2578125,308,51.0,0.0
9861,19.259765625,308,57.0,0.0
9862,19.26171875,308,84.0,0.0
9863,19.263671875,308,115.0,0.0
9864,19.265625,308,161.0,0.0
9865,19.267578125,308,179.0,0.0
9866,19.26953125,308,172.0,0.0
9867,19.271484375,308,151.0,0.0
9868,19.2734375,308,151.0,0.0
9869,19.275390625,308,188.0,0.0
9870,19.27734375,308,168.0,0.0
9871,19.279296875,308,100.0,0.0
9872,19.28125,308,96.0,0.0
9873,19.283203125,308,88.0,0.0
9874,19.28515625,308,70.0,0.0
9875,19.287109375,308,103.0,0.0
9876,19.2890625,308,137.0,0.0
9877,19.291015625,308,146.0,0.0
9878,19.29296875,308,141.0,0.0
9879,19.294921875,308,138.0,0.0
9880,19.296875,308,121.0,0.0
9881,19.298828125,308,116.0,0.0
9882,19.30078125,308,119.0,0.0
9883,19.302734375,308,136.0,0.0
9884,19.3046875,308,148.0,0.0
9885,19.306640625,308,131.0,0.0
9886,19.30859375,308,122.0,0.0
9887,19.310546875,308,98.0,0.0
9888,19.3125,309,88.0,0.0
9889,19.314453125,309,81.0,0.0
9890,19.31640625,309,45.0,0.0
9891,19.318359375,309,48.0,0.0
9892,19.3203125,309,34.0,0.0
9893,19.322265625,309,-29.0,0.0
9894,19.32421875,309,-57.0,0.0
9895,19.326171875,309,-45.0,0.0
9896,19.328125,309,-36.0,0.0
9897,19.330078125,309,11.0,0.0
9898,19.33203125,309,74.0,0.0
9899,19.333984375,309,69.0,0.0
9900,19.3359375,309,42.0,0.0
9901,19.337890625,309,35.0,0.0
9902,19.33984375,309,34.0,0.0
9903,19.341796875,309,48.0,0.0
9904,19.34375,309,68.0,0.0
9905,19.345703125,309,90.0,0.0
9906,19.34765625,309,64.0,0.0
9907,19.349609375,309,20.0,0.0
9908,19.3515625,309,35.0,0.0
9909,19.353515625,309,97.0,0.0
9910,19.35546875,309,92.0,0.0
9911,19.357421875,309,72.0,0.0
9912,19.359375,309,80.0,0.0
9913,19.361328125,309,89.0,0.0
9914,19.36328125,309,86.0,0.0
9915,19.365234375,309,104.0,0.0
9916,19.3671875,309,113.0,0.0
9917,19.369140625,309,73.0,0.0
9918,19.37109375,309,61.0,0.0
9919,19.373046875,309,75.0,0.0
9920,19.375,310,53.0,0.0
9921,19.376953125,310,49.0,0.0
9922,19.37890625,310,64.0,0.0
9923,19.380859375,310,67.0,0.0
9924,19.3828125,310,59.0,0.0
9925,19.384765625,310,73.0,0.0
9926,19.38671875,310,117.0,0.0
9927,19.388671875,310,138.0,0.0
9928,19.390625,310,101.0,0.0
9929,19.392578125,310,82.0,0.0
9930,19.39453125,310,104.0,0.0
9931,19.396484375,310,114.0,0.0
9932,19.3984375,310,100.0,0.0
9933,19.400390625,310,123.0,0.0
9934,19.40234375,310,99.0,0.0
9935,19.404296875,310,41.0,0.0
9936,19.40625,310,39.0,0.0
9937,19.408203125,310,91.0,0.0
9938,19.41015625,310,155.0,0.0
9939,19.412109375,310,182.0,0.0
9940,19.4140625,310,147.0,0.0
9941,19.416015625,310,45.0,0.0
9942,19.41796875,310,-18.0,0.0
9943,19.419921875,310,11.0,0.0
9944,19.421875,310,83.0,0.0
9945,19.423828125,310,105.0,0.0
9946,19.42578125,310,53.0,0.0
9947,19.427734375,310,16.0,0.0
9948,19.4296875,310,40.0,0.0
9949,19.431640625,310,-4.0,0.0
9950,19.43359375,310,-74.0,0.0
9951,19.435546875,310,-116.0,0.0
9952,19.4375,311,-39.0,0.0
9953,19.439453125,311,45.0,0.0
9954,19.44140625,311,69.0,0.0
9955,19.443359375,311,36.0,0.0
9956,19.4453125,311,6.0,0.0
9957,19.447265625,311,22.0,0.0
9958,19.44921875,311,61.0,0.0
9959,19.451171875,311,107.0,0.0
9960,19.453125,311,164.0,0.0
9961,19.455078125,311,188.0,0.0
9962,19.45703125,311,167.0,0.0
9963,19.458984375,311,136.0,0.0
9964,19.4609375,311,77.0,0.0
9965,19.462890625,311,17.0,0.0
9966,19.46484375,311,29.0,0.0
9967,19.466796875,311,132.0,0.0
9968,19.46875,311,224.0,0.0
9969,19.470703125,311,167.0,0.0
9970,19.47265625,311,54.0,0.0
9971,19.474609375,311,65.0,0.0
9972,19.4765625,311,162.0,0.0
9973,19.478515625,311,202.0,0.0
9974,19.48046875,311,186.0,0.0
9975,19.482421875,311,211.0,0.0
9976,19.484375,311,248.0,0.0
9977,19.486328125,311,226.0,0.0
9978,19.48828125,311,188.0,0.0
9979,19.490234375,311,169.0,0.0
9980,19.4921875,311,178.0,0.0
9981,19.494140625,311,141.0,0.0
9982,19.49609375,311,75.0,0.0
9983,19.498046875,311,59.0,0.0
9984,19.5,312,121.0,0.0
9985,19.501953125,312,129.0,0.0
9986,19.50390625,312,87.0,0.0
9987,19.505859375,312,104.0,0.0
9988,19.5078125,312,148.0,0.0
9989,19.509765625,312,163.0,0.0
9990,19.51171875,312,134.0,0.0
9991,19.513671875,312,112.0,0.0
9992,19.515625,312,138.0,0.0
9993,19.517578125,312,118.0,0.0
9994,19.51953125,312,85.0,0.0
9995,19.521484375,312,70.0,0.0
9996,19.5234375,312,93.0,0.0
9997,19.525390625,312,121.0,0.0
9998,19.52734375,312,129.0,0.0
9999,19.529296875,312,120.0,0.0
10000,19.53125,312,119.0,0.0
10001,19.533203125,312,153.0,0.0
10002,19.53515625,312,179.0,0.0
10003,19.537109375,312,141.0,0.0
10004,19.5390625,312,115.0,0.0
10005,19.541015625,312,89.0,0.0
10006,19.54296875,312,40.0,0.0
10007,19.544921875,312,1.0,0.0
10008,19.546875,312,24.0,0.0
10009,19.548828125,312,69.0,0.0
10010,19.55078125,312,66.0,0.0
10011,19.552734375,312,66.0,0.0
10012,19.5546875,312,83.0,0.0
10013,19.556640625,312,119.0,0.0
10014,19.55859375,312,128.0,0.0
10015,19.560546875,312,154.0,0.0
10016,19.5625,313,200.0,0.0
10017,19.564453125,313,197.0,0.0
10018,19.56640625,313,153.0,0.0
10019,19.568359375,313,85.0,0.0
10020,19.5703125,313,26.0,0.0
10021,19.572265625,313,34.0,0.0
10022,19.57421875,313,132.0,0.0
10023,19.576171875,313,168.0,0.0
10024,19.578125,313,101.0,0.0
10025,19.580078125,313,42.0,0.0
10026,19.58203125,313,12.0,0.0
10027,19.583984375,313,-10.0,0.0
10028,19.5859375,313,-7.0,0.0
10029,19.587890625,313,-14.0,0.0
10030,19.58984375,313,5.0,0.0
10031,19.591796875,313,50.0,0.0
10032,19.59375,313,52.0,0.0
10033,19.595703125,313,9.0,0.0
10034,19.59765625,313,23.0,0.0
10035,19.599609375,313,109.0,0.0
10036,19.6015625,313,189.0,0.0
10037,19.603515625,313,180.0,0.0
10038,19.60546875,313,81.0,0.0
10039,19.607421875,313,8.0,0.0
10040,19.609375,313,-4.0,0.0
10041,19.611328125,313,-4.0,0.0
10042,19.61328125,313,-13.0,0.0
10043,19.615234375,313,-3.0,0.0
10044,19.6171875,313,59.0,0.0
10045,19.619140625,313,91.0,0.0
10046,19.62109375,313,29.0,0.0
10047,19.623046875,313,17.0,0.0
10048,19.625,314,60.0,0.0
10049,19.626953125,314,57.0,0.0
10050,19.62890625,314,55.0,0.0
10051,19.630859375,314,48.0,0.0
10052,19.6328125,314,82.0,0.0
10053,19.634765625,314,112.0,0.0
10054,19.63671875,314,59.0,0.0
10055,19.638671875,314,35.0,0.0
10056,19.640625,314,58.0,0.0
10057,19.642578125,314,101.0,0.0
10058,19.64453125,314,136.0,0.0
10059,19.646484375,314,75.0,0.0
10060,19.6484375,314,43.0,0.0
10061,19.650390625,314,90.0,0.0
10062,19.65234375,314,125.0,0.0
10063,19.654296875,314,144.0,0.0
10064,19.65625,314,112.0,0.0
10065,19.658203125,314,42.0,0.0
10066,19.66015625,314,53.0,0.0
10067,19.662109375,314,119.0,0.0
10068,19.6640625,314,204.0,0.0
10069,19.666015625,314,200.0,0.0
10070,19.66796875,314,89.0,0.0
10071,19.669921875,314,19.0,0.0
10072,19.671875,314,57.0,0.0
10073,19.673828125,314,74.0,0.0
10074,19.67578125,314,50.0,0.0
10075,19.677734375,314,-20.0,0.0
10076,19.6796875,314,-20.0,0.0
10077,19.681640625,314,26.0,0.0
10078,19.68359375,314,12.0,0.0
10079,19.685546875,314,45.0,0.0
10080,19.6875,315,88.0,0.0
10081,19.689453125,315,136.0,0.0
10082,19.69140625,315,217.0,0.0
10083,19.693359375,315,130.0,0.0
10084,19.6953125,315,-27.0,0.0
10085,19.697265625,315,-56.0,0.0
10086,19.69921875,315,28.0,0.0
10087,19.701171875,315,147.0,0.0
10088,19.703125,315,229.0,0.0
10089,19.705078125,315,32.0,0.0
10090,19.70703125,315,-157.0,0.0
10091,19.708984375,315,8.0,0.0
10092,19.7109375,315,313.0,0.0
10093,19.712890625,315,313.0,0.0
10094,19.71484375,315,-11.0,0.0
10095,19.716796875,315,-314.0,0.0
10096,19.71875,315,-402.0,0.0
10097,19.720703125,315,-340.0,0.0
10098,19.72265625,315,-194.0,0.0
10099,19.724609375,315,-100.0,0.0
10100,19.7265625,315,-126.0,0.0
10101,19.728515625,315,-121.0,0.0
10102,19.73046875,315,-35.0,0.0
10103,19.732421875,315,60.0,0.0
10104,19.734375,315,-33.0,0.0
10105,19.736328125,315,-189.0,0.0
10106,19.73828125,315,-184.0,0.0
10107,19.740234375,315,-50.0,0.0
10108,19.7421875,315,40.0,0.0
10109,19.744140625,315,69.0,0.0
10110,19.74609375,315,9.0,0.0
10111,19.748046875,315,228.0,0.0
10112,19.75,316,599.0,0.0
10113,19.751953125,316,426.0,0.0
10114,19.75390625,316,-137.0,0.0
10115,19.755859375,316,-412.0,0.0
10116,19.7578125,316,-365.0,0.0
10117,19.759765625,316,-315.0,0.0
10118,19.76171875,316,-370.0,0.0
10119,19.763671875,316,-455.0,0.0
10120,19.765625,316,-468.0,0.0
10121,19.767578125,316,-260.0,0.0
10122,19.76953125,316,210.0,0.0
10123,19.771484375,316,953.0,0.0
10124,19.7734375,316,1252.0,0.0
10125,19.775390625,316,854.0,0.0
10126,19.77734375,316,324.0,0.0
10127,19.779296875,316,360.0,0.0
10128,19.78125,316,425.0,0.0
10129,19.783203125,316,16.0,0.0
10130,19.78515625,316,-389.0,0.0
10131,19.787109375,316,-427.0,0.0
10132,19.7890625,316,-266.0,0.0
10133,19.791015625,316,-69.0,0.0
10134,19.79296875,316,1.0,0.0
10135,19.794921875,316,-166.0,0.0
10136,19.796875,316,-334.0,0.0
10137,19.798828125,316,-227.0,0.0
10138,19.80078125,316,-106.0,0.0
10139,19.802734375,316,-109.0,0.0
10140,19.8046875,316,-268.0,0.0
10141,19.806640625,316,-362.0,0.0
10142,19.80859375,316,-396.0,0.0
10143,19.810546875,316,-398.0,0.0
10144,19.8125,317,-293.0,0.0
10145,19.814453125,317,-217.0,0.0
10146,19.81640625,317,-149.0,0.0
10147,19.818359375,317,-70.0,0.0
10148,19.8203125,317,-62.0,0.0
10149,19.822265625,317,-117.0,0.0
10150,19.82421875,317,-42.0,0.0
10151,19.826171875,317,71.0,0.0
10152,19.828125,317,67.0,0.0
10153,19.830078125,317,21.0,0.0
10154,19.83203125,317,53.0,0.0
10155,19.833984375,317,129.0,0.0
10156,19.8359375,317,196.0,0.0
10157,19.837890625,317,177.0,0.0
10158,19.83984375,317,16.0,0.0
10159,19.841796875,317,-99.0,0.0
10160,19.84375,317,-118.0,0.0
10161,19.845703125,317,-102.0,0.0
10162,19.84765625,317,8.0,0.0
10163,19.849609375,317,132.0,0.0
10164,19.8515625,317,208.0,0.0
10165,19.853515625,317,140.0,0.0
10166,19.85546875,317,8.0,0.0
10167,19.857421875,317,-74.0,0.0
10168,19.859375,317,-62.0,0.0
10169,19.861328125,317,59.0,0.0
10170,19.86328125,317,122.0,0.0
10171,19.865234375,317,48.0,0.0
10172,19.8671875,317,-68.0,0.0
10173,19.869140625,317,-98.0,0.0
10174,19.87109375,317,-38.0,0.0
10175,19.873046875,317,37.0,0.0
10176,19.875,318,82.0,0.0
10177,19.876953125,318,64.0,0.0
10178,19.87890625,318,21.0,0.0
10179,19.880859375,318,67.0,0.0
10180,19.8828125,318,53.0,0.0
10181,19.884765625,318,-61.0,0.0
10182,19.88671875,318,-109.0,0.0
10183,19.888671875,318,-91.0,0.0
10184,19.890625,318,-88.0,0.0
10185,19.892578125,318,-58.0,0.0
10186,19.89453125,318,12.0,0.0
10187,19.896484375,318,88.0,0.0
10188,19.8984375,318,103.0,0.0
10189,19.900390625,318,83.0,0.0
10190,19.90234375,318,50.0,0.0
10191,19.904296875,318,45.0,0.0
10192,19.90625,318,49.0,0.0
10193,19.908203125,318,16.0,0.0
10194,19.91015625,318,2.0,0.0
10195,19.912109375,318,35.0,0.0
10196,19.9140625,318,53.0,0.0
10197,19.916015625,318,44.0,0.0
10198,19.91796875,318,56.0,0.0
10199,19.919921875,318,85.0,0.0
10200,19.921875,318,116.0,0.0
10201,19.923828125,318,88.0,0.0
10202,19.92578125,318,36.0,0.0
10203,19.927734375,318,48.0,0.0
10204,19.9296875,318,42.0,0.0
10205,19.931640625,318,1.0,0.0
10206,19.93359375,318,24.0,0.0
10207,19.935546875,318,66.0,0.0
10208,19.9375,319,104.0,0.0
10209,19.939453125,319,131.0,0.0
10210,19.94140625,319,52.0,0.0
10211,19.943359375,319,-43.0,0.0
10212,19.9453125,319,-41.0,0.0
10213,19.947265625,319,7.0,0.0
10214,19.94921875,319,33.0,0.0
10215,19.951171875,319,34.0,0.0
10216,19.953125,319,40.0,0.0
10217,19.955078125,319,64.0,0.0
10218,19.95703125,319,118.0,0.0
10219,19.958984375,319,131.0,0.0
10220,19.9609375,319,50.0,0.0
10221,19.962890625,319,10.0,0.0
10222,19.96484375,319,33.0,0.0
10223,19.966796875,319,54.0,0.0
10224,19.96875,319,65.0,0.0
10225,19.970703125,319,49.0,0.0
10226,19.97265625,319,26.0,0.0
10227,19.974609375,319,11.0,0.0
10228,19.9765625,319,5.0,0.0
10229,19.978515625,319,37.0,0.0
10230,19.98046875,319,66.0,0.0
10231,19.982421875,319,45.0,0.0
10232,19.984375,319,28.0,0.0
10233,19.986328125,319,36.0,0.0
10234,19.98828125,319,6.0,0.0
10235,19.990234375,319,-21.0,0.0
10236,19.9921875,319,10.0,0.0
10237,19.994140625,319,53.0,0.0
10238,19.99609375,319,59.0,0.0
10239,19.998046875,319,68.0,0.0
10240,20.0,320,59.0,0.0
10241,20.001953125,320,42.0,0.0
10242,20.00390625,320,20.0,0.0
10243,20.005859375,320,32.0,0.0
10244,20.0078125,320,76.0,0.0
10245,20.009765625,320,114.0,0.0
10246,20.01171875,320,113.0,0.0
10247,20.013671875,320,72.0,0.0
10248,20.015625,320,52.0,0.0
10249,20.017578125,320,68.0,0.0
10250,20.01953125,320,84.0,0.0
10251,20.021484375,320,88.0,0.0
10252,20.0234375,320,64.0,0.0
10253,20.025390625,320,52.0,0.0
10254,20.02734375,320,67.0,0.0
10255,20.029296875,320,56.0,0.0
10256,20.03125,320,64.0,0.0
10257,20.033203125,320,106.0,0.0
10258,20.03515625,320,138.0,0.0
10259,20.037109375,320,125.0,0.0
10260,20.0390625,320,96.0,0.0
10261,20.041015625,320,52.0,0.0
10262,20.04296875,320,49.0,0.0
10263,20.044921875,320,83.0,0.0
10264,20.046875,320,77.0,0.0
10265,20.048828125,320,41.0,0.0
10266,20.05078125,320,6.0,0.0
10267,20.052734375,320,-5.0,0.0
10268,20.0546875,320,-17.0,0.0
10269,20.056640625,320,-45.0,0.0
10270,20.05859375,320,-59.0,0.0
10271,20.060546875,320,-55.0,0.0
10272,20.0625,321,-52.0,0.0
10273,20.064453125,321,-66.0,0.0
10274,20.06640625,321,-110.0,0.0
10275,20.068359375,321,-154.0,0.0
10276,20.0703125,321,-147.0,0.0
10277,20.072265625,321,-92.0,0.0
10278,20.07421875,321,-55.0,0.0
10279,20.076171875,321,-18.0,0.0
10280,20.078125,321,28.0,0.0
10281,20.080078125,321,54.0,0.0
10282,20.08203125,321,76.0,0.0
10283,20.083984375,321,100.0,0.0
10284,20.0859375,321,76.0,0.0
10285,20.087890625,321,55.0,0.0
10286,20.08984375,321,80.0,0.0
10287,20.091796875,321,112.0,0.0
10288,20.09375,321,115.0,0.0
10289,20.095703125,321,117.0,0.0
10290,20.09765625,321,146.0,0.0
10291,20.099609375,321,124.0,0.0
10292,20.1015625,321,77.0,0.0
10293,20.103515625,321,73.0,0.0
10294,20.10546875,321,96.0,0.0
10295,20.107421875,321,129.0,0.0
10296,20.109375,321,177.0,0.0
10297,20.111328125,321,192.0,0.0
10298,20.11328125,321,170.0,0.0
10299,20.115234375,321,136.0,0.0
10300,20.1171875,321,130.0,0.0
10301,20.119140625,321,149.0,0.0
10302,20.12109375,321,184.0,0.0
10303,20.123046875,321,213.0,0.0
10304,20.125,322,184.0,0.0
10305,20.126953125,322,150.0,0.0
10306,20.12890625,322,99.0,0.0
10307,20.130859375,322,50.0,0.0
10308,20.1328125,322,67.0,0.0
10309,20.134765625,322,137.0,0.0
10310,20.13671875,322,177.0,0.0
10311,20.138671875,322,147.0,0.0
10312,20.140625,322,98.0,0.0
10313,20.142578125,322,72.0,0.0
10314,20.14453125,322,77.0,0.0
10315,20.146484375,322,114.0,0.0
10316,20.1484375,322,154.0,0.0
10317,20.150390625,322,149.0,0.0
10318,20.15234375,322,104.0,0.0
10319,20.154296875,322,102.0,0.0
10320,20.15625,322,147.0,0.0
10321,20.158203125,322,166.0,0.0
10322,20.16015625,322,147.0,0.0
10323,20.162109375,322,125.0,0.0
10324,20.1640625,322,121.0,0.0
10325,20.166015625,322,103.0,0.0
10326,20.16796875,322,99.0,0.0
10327,20.169921875,322,107.0,0.0
10328,20.171875,322,121.0,0.0
10329,20.173828125,322,122.0,0.0
10330,20.17578125,322,101.0,0.0
10331,20.177734375,322,64.0,0.0
10332,20.1796875,322,32.0,0.0
10333,20.181640625,322,37.0,0.0
10334,20.18359375,322,66.0,0.0
10335,20.185546875,322,73.0,0.0
10336,20.1875,323,35.0,0.0
10337,20.189453125,323,-19.0,0.0
10338,20.19140625,323,-23.0,0.0
10339,20.193359375,323,6.0,0.0
10340,20.1953125,323,9.0,0.0
10341,20.197265625,323,-25.0,0.0
10342,20.19921875,323,-106.0,0.0
10343,20.201171875,323,-157.0,0.0
10344,20.203125,323,-140.0,0.0
10345,20.205078125,323,-49.0,0.0
10346,20.20703125,323,6.0,0.0
10347,20.208984375,323,-17.0,0.0
10348,20.2109375,323,-60.0,0.0
10349,20.212890625,323,-88.0,0.0
10350,20.21484375,323,-77.0,0.0
10351,20.216796875,323,-39.0,0.0
10352,20.21875,323,-9.0,0.0
10353,20.220703125,323,-23.0,0.0
10354,20.22265625,323,-87.0,0.0
10355,20.224609375,323,-133.0,0.0
10356,20.2265625,323,-116.0,0.0
10357,20.228515625,323,-83.0,0.0
10358,20.23046875,323,-68.0,0.0
10359,20.232421875,323,-86.0,0.0
10360,20.234375,323,-102.0,0.0
10361,20.236328125,323,-97.0,0.0
10362,20.23828125,323,-93.0,0.0
10363,20.240234375,323,-69.0,0.0
10364,20.2421875,323,-45.0,0.0
10365,20.244140625,323,-44.0,0.0
10366,20.24609375,323,-52.0,0.0
10367,20.248046875,323,-38.0,0.0
10368,20.25,324,5.0,0.0
10369,20.251953125,324,39.0,0.0
10370,20.25390625,324,51.0,0.0
10371,20.255859375,324,56.0,0.0
10372,20.2578125,324,67.0,0.0
10373,20.259765625,324,80.0,0.0
10374,20.26171875,324,82.0,0.0
10375,20.263671875,324,76.0,0.0
10376,20.265625,324,92.0,0.0
10377,20.267578125,324,105.0,0.0
10378,20.26953125,324,71.0,0.0
10379,20.271484375,324,45.0,0.0
10380,20.2734375,324,69.0,0.0
10381,20.275390625,324,113.0,0.0
10382,20.27734375,324,134.0,0.0
10383,20.279296875,324,122.0,0.0
10384,20.28125,324,122.0,0.0
10385,20.283203125,324,161.0,0.0
10386,20.28515625,324,201.0,0.0
10387,20.287109375,324,199.0,0.0
10388,20.2890625,324,193.0,0.0
10389,20.291015625,324,168.0,0.0
10390,20.29296875,324,154.0,0.0
10391,20.294921875,324,179.0,0.0
10392,20.296875,324,184.0,0.0
10393,20.298828125,324,173.0,0.0
10394,20.30078125,324,171.0,0.0
10395,20.302734375,324,176.0,0.0
10396,20.3046875,324,153.0,0.0
10397,20.306640625,324,139.0,0.0
10398,20.30859375,324,152.0,0.0
10399,20.310546875,324,155.0,0.0
10400,20.3125,325,162.0,0.0
10401,20.314453125,325,197.0,0.0
10402,20.31640625,325,230.0,0.0
10403,20.318359375,325,161.0,0.0
10404,20.3203125,325,98.0,0.0
10405,20.322265625,325,103.0,0.0
10406,20.32421875,325,150.0,0.0
10407,20.326171875,325,164.0,0.0
10408,20.328125,325,132.0,0.0
10409,20.330078125,325,116.0,0.0
10410,20.33203125,325,152.0,0.0
10411,20.333984375,325,182.0,0.0
10412,20.3359375,325,172.0,0.0
10413,20.337890625,325,184.0,0.0
10414,20.33984375,325,199.0,0.0
10415,20.341796875,325,169.0,0.0
10416,20.34375,325,112.0,0.0
10417,20.345703125,325,54.0,0.0
10418,20.34765625,325,13.0,0.0
10419,20.349609375,325,16.0,0.0
10420,20.3515625,325,55.0,0.0
10421,20.353515625,325,150.0,0.0
10422,20.35546875,325,145.0,0.0
10423,20.357421875,325,48.0,0.0
10424,20.359375,325,-2.0,0.0
10425,20.361328125,325,-20.0,0.0
10426,20.36328125,325,-54.0,0.0
10427,20.365234375,325,-70.0,0.0
10428,20.3671875,325,-52.0,0.0
10429,20.369140625,325,7.0,0.0
10430,20.37109375,325,66.0,0.0
10431,20.373046875,325,65.0,0.0
10432,20.375,326,-1.0,0.0
10433,20.376953125,326,-102.0,0.0
10434,20.37890625,326,-81.0,0.0
10435,20.380859375,326,-14.0,0.0
10436,20.3828125,326,48.0,0.0
10437,20.384765625,326,102.0,0.0
10438,20.38671875,326,27.0,0.0
10439,20.388671875,326,-86.0,0.0
10440,20.390625,326,-50.0,0.0
10441,20.392578125,326,27.0,0.0
10442,20.39453125,326,34.0,0.0
10443,20.396484375,326,52.0,0.0
10444,20.3984375,326,86.0,0.0
10445,20.400390625,326,49.0,0.0
10446,20.40234375,326,-26.0,0.0
10447,20.404296875,326,-73.0,0.0
10448,20.40625,326,-50.0,0.0
10449,20.408203125,326,19.0,0.0
10450,20.41015625,326,89.0,0.0
10451,20.412109375,326,80.0,0.0
10452,20.4140625,326,-22.0,0.0
10453,20.416015625,326,-110.0,0.0
10454,20.41796875,326,-97.0,0.0
10455,20.419921875,326,16.0,0.0
10456,20.421875,326,216.0,0.0
10457,20.423828125,326,262.0,0.0
10458,20.42578125,326,26.0,0.0
10459,20.427734375,326,-62.0,0.0
10460,20.4296875,326,92.0,0.0
10461,20.431640625,326,43.0,0.0
10462,20.43359375,326,-87.0,0.0
10463,20.435546875,326,75.0,0.0
10464,20.4375,327,267.0,0.0
10465,20.439453125,327,267.0,0.0
10466,20.44140625,327,256.0,0.0
10467,20.443359375,327,229.0,0.0
10468,20.4453125,327,321.0,0.0
10469,20.447265625,327,548.0,0.0
10470,20.44921875,327,532.0,0.0
10471,20.451171875,327,282.0,0.0
10472,20.453125,327,-29.0,0.0
10473,20.455078125,327,-433.0,0.0
10474,20.45703125,327,-743.0,0.0
10475,20.458984375,327,-722.0,0.0
10476,20.4609375,327,-465.0,0.0
10477,20.462890625,327,-248.0,0.0
10478,20.46484375,327,204.0,0.0
10479,20.466796875,327,779.0,0.0
10480,20.46875,327,885.0,0.0
10481,20.470703125,327,513.0,0.0
10482,20.47265625,327,325.0,0.0
10483,20.474609375,327,400.0,0.0
10484,20.4765625,327,115.0,0.0
10485,20.478515625,327,-190.0,0.0
10486,20.48046875,327,-517.0,0.0
10487,20.482421875,327,-908.0,0.0
10488,20.484375,327,-1154.0,0.0
10489,20.486328125,327,-997.0,0.0
10490,20.48828125,327,-668.0,0.0
10491,20.490234375,327,-404.0,0.0
10492,20.4921875,327,-232.0,0.0
10493,20.494140625,327,-67.0,0.0
10494,20.49609375,327,85.0,0.0
10495,20.498046875,327,407.0,0.0
10496,20.5,328,1080.0,0.0
10497,20.501953125,328,1712.0,0.0
10498,20.50390625,328,1224.0,0.0
10499,20.505859375,328,-10.0,0.0
10500,20.5078125,328,-665.0,0.0
10501,20.509765625,328,-566.0,0.0
10502,20.51171875,328,-274.0,0.0
10503,20.513671875,328,64.0,0.0
10504,20.515625,328,34.0,0.0
10505,20.517578125,328,-402.0,0.0
10506,20.51953125,328,-789.0,0.0
10507,20.521484375,328,-667.0,0.0
10508,20.5234375,328,-87.0,0.0
10509,20.525390625,328,444.0,0.0
10510,20.52734375,328,387.0,0.0
10511,20.529296875,328,-178.0,0.0
10512,20.53125,328,-665.0,0.0
10513,20.533203125,328,-723.0,0.0
10514,20.53515625,328,-630.0,0.0
10515,20.537109375,328,-580.0,0.0
10516,20.5390625,328,-470.0,0.0
10517,20.541015625,328,-300.0,0.0
10518,20.54296875,328,-103.0,0.0
10519,20.544921875,328,-11.0,0.0
10520,20.546875,328,-65.0,0.0
10521,20.548828125,328,-204.0,0.0
10522,20.55078125,328,-443.0,0.0
10523,20.552734375,328,-364.0,0.0
10524,20.5546875,328,-84.0,0.0
10525,20.556640625,328,100.0,0.0
10526,20.55859375,328,118.0,0.0
10527,20.560546875,328,-14.0,0.0
10528,20.5625,329,-150.0,0.0
10529,20.564453125,329,-161.0,0.0
10530,20.56640625,329,-102.0,0.0
10531,20.568359375,329,-104.0,0.0
10532,20.5703125,329,-19.0,0.0
10533,20.572265625,329,96.0,0.0
10534,20.57421875,329,125.0,0.0
10535,20.576171875,329,89.0,0.0
10536,20.578125,329,114.0,0.0
10537,20.580078125,329,90.0,0.0
10538,20.58203125,329,-37.0,0.0
10539,20.583984375,329,-133.0,0.0
10540,20.5859375,329,-97.0,0.0
10541,20.587890625,329,-9.0,0.0
10542,20.58984375,329,72.0,0.0
10543,20.591796875,329,90.0,0.0
10544,20.59375,329,26.0,0.0
10545,20.595703125,329,-17.0,0.0
10546,20.59765625,329,29.0,0.0
10547,20.599609375,329,109.0,0.0
10548,20.6015625,329,140.0,0.0
10549,20.603515625,329,140.0,0.0
10550,20.60546875,329,151.0,0.0
10551,20.607421875,329,176.0,0.0
10552,20.609375,329,180.0,0.0
10553,20.611328125,329,151.0,0.0
10554,20.61328125,329,115.0,0.0
10555,20.615234375,329,83.0,0.0
10556,20.6171875,329,90.0,0.0
10557,20.619140625,329,114.0,0.0
10558,20.62109375,329,106.0,0.0
10559,20.623046875,329,100.0,0.0
10560,20.625,330,118.0,0.0
10561,20.626953125,330,133.0,0.0
10562,20.62890625,330,129.0,0.0
10563,20.630859375,330,116.0,0.0
10564,20.6328125,330,69.0,0.0
10565,20.634765625,330,19.0,0.0
10566,20.63671875,330,19.0,0.0
10567,20.638671875,330,67.0,0.0
10568,20.640625,330,123.0,0.0
10569,20.642578125,330,121.0,0.0
10570,20.64453125,330,96.0,0.0
10571,20.646484375,330,89.0,0.0
10572,20.6484375,330,83.0,0.0
10573,20.650390625,330,59.0,0.0
10574,20.65234375,330,61.0,0.0
10575,20.654296875,330,92.0,0.0
10576,20.65625,330,121.0,0.0
10577,20.658203125,330,115.0,0.0
10578,20.66015625,330,54.0,0.0
10579,20.662109375,330,8.0,0.0
10580,20.6640625,330,8.0,0.0
10581,20.666015625,330,-21.0,0.0
10582,20.66796875,330,-71.0,0.0
10583,20.669921875,330,-27.0,0.0
10584,20.671875,330,73.0,0.0
10585,20.673828125,330,119.0,0.0
10586,20.67578125,330,60.0,0.0
10587,20.677734375,330,25.0,0.0
10588,20.6796875,330,74.0,0.0
10589,20.681640625,330,115.0,0.0
10590,20.68359375,330,96.0,0.0
10591,20.685546875,330,36.0,0.0
10592,20.6875,331,-11.0,0.0
10593,20.689453125,331,-26.0,0.0
10594,20.69140625,331,-28.0,0.0
10595,20.693359375,331,-6.0,0.0
10596,20.6953125,331,12.0,0.0
10597,20.697265625,331,2.0,0.0
10598,20.69921875,331,-6.0,0.0
10599,20.701171875,331,-4.0,0.0
10600,20.703125,331,17.0,0.0
10601,20.705078125,331,57.0,0.0
10602,20.70703125,331,44.0,0.0
10603,20.708984375,331,-26.0,0.0
10604,20.7109375,331,-91.0,0.0
10605,20.712890625,331,-77.0,0.0
10606,20.71484375,331,-40.0,0.0
10607,20.716796875,331,-76.0,0.0
10608,20.71875,331,-129.0,0.0
10609,20.720703125,331,-109.0,0.0
10610,20.72265625,331,-56.0,0.0
10611,20.724609375,331,-12.0,0.0
10612,20.7265625,331,-5.0,0.0
10613,20.728515625,331,-22.0,0.0
10614,20.73046875,331,-2.0,0.0
10615,20.732421875,331,41.0,0.0
10616,20.734375,331,70.0,0.0
10617,20.736328125,331,54.0,0.0
10618,20.73828125,331,8.0,0.0
10619,20.740234375,331,-4.0,0.0
10620,20.7421875,331,13.0,0.0
10621,20.744140625,331,27.0,0.0
10622,20.74609375,331,36.0,0.0
10623,20.748046875,331,85.0,0.0
10624,20.75,332,139.0,0.0
10625,20.751953125,332,156.0,0.0
10626,20.75390625,332,140.0,0.0
10627,20.755859375,332,124.0,0.0
10628,20.7578125,332,124.0,0.0
10629,20.759765625,332,157.0,0.0
10630,20.76171875,332,172.0,0.0
10631,20.763671875,332,138.0,0.0
10632,20.765625,332,123.0,0.0
10633,20.767578125,332,186.0,0.0
10634,20.76953125,332,242.0,0.0
10635,20.771484375,332,234.0,0.0
10636,20.7734375,332,188.0,0.0
10637,20.775390625,332,156.0,0.0
10638,20.77734375,332,145.0,0.0
10639,20.779296875,332,87.0,0.0
10640,20.78125,332,51.0,0.0
10641,20.783203125,332,109.0,0.0
10642,20.78515625,332,150.0,0.0
10643,20.787109375,332,109.0,0.0
10644,20.7890625,332,81.0,0.0
10645,20.791015625,332,117.0,0.0
10646,20.79296875,332,151.0,0.0
10647,20.794921875,332,149.0,0.0
10648,20.796875,332,137.0,0.0
10649,20.798828125,332,136.0,0.0
10650,20.80078125,332,149.0,0.0
10651,20.802734375,332,170.0,0.0
10652,20.8046875,332,183.0,0.0
10653,20.806640625,332,164.0,0.0
10654,20.80859375,332,130.0,0.0
10655,20.810546875,332,137.0,0.0
10656,20.8125,333,137.0,0.0
10657,20.814453125,333,72.0,0.0
10658,20.81640625,333,9.0,0.0
10659,20.818359375,333,36.0,0.0
10660,20.8203125,333,132.0,0.0
10661,20.822265625,333,162.0,0.0
10662,20.82421875,333,139.0,0.0
10663,20.826171875,333,117.0,0.0
10664,20.828125,333,108.0,0.0
10665,20.830078125,333,176.0,0.0
10666,20.83203125,333,248.0,0.0
10667,20.833984375,333,173.0,0.0
10668,20.8359375,333,52.0,0.0
10669,20.837890625,333,45.0,0.0
10670,20.83984375,333,88.0,0.0
10671,20.841796875,333,103.0,0.0
10672,20.84375,333,83.0,0.0
10673,20.845703125,333,70.0,0.0
10674,20.84765625,333,106.0,0.0
10675,20.849609375,333,170.0,0.0
10676,20.8515625,333,182.0,0.0
10677,20.853515625,333,113.0,0.0
10678,20.85546875,333,68.0,0.0
10679,20.857421875,333,124.0,0.0
10680,20.859375,333,204.0,0.0
10681,20.861328125,333,211.0,0.0
10682,20.86328125,333,176.0,0.0
10683,20.865234375,333,154.0,0.0
10684,20.8671875,333,130.0,0.0
10685,20.869140625,333,105.0,0.0
10686,20.87109375,333,72.0,0.0
10687,20.873046875,333,34.0,0.0
10688,20.875,334,70.0,0.0
10689,20.876953125,334,136.0,0.0
10690,20.87890625,334,147.0,0.0
10691,20.880859375,334,113.0,0.0
10692,20.8828125,334,86.0,0.0
10693,20.884765625,334,81.0,0.0
10694,20.88671875,334,76.0,0.0
10695,20.888671875,334,108.0,0.0
10696,20.890625,334,139.0,0.0
10697,20.892578125,334,116.0,0.0
10698,20.89453125,334,104.0,0.0
10699,20.896484375,334,146.0,0.0
10700,20.8984375,334,166.0,0.0
10701,20.900390625,334,165.0,0.0
10702,20.90234375,334,136.0,0.0
10703,20.904296875,334,109.0,0.0
10704,20.90625,334,77.0,0.0
10705,20.908203125,334,41.0,0.0
10706,20.91015625,334,41.0,0.0
10707,20.912109375,334,71.0,0.0
10708,20.9140625,334,80.0,0.0
10709,20.916015625,334,68.0,0.0
10710,20.91796875,334,91.0,0.0
10711,20.919921875,334,183.0,0.0
10712,20.921875,334,305.0,0.0
10713,20.923828125,334,352.0,0.0
10714,20.92578125,334,264.0,0.0
10715,20.927734375,334,154.0,0.0
10716,20.9296875,334,121.0,0.0
10717,20.931640625,334,139.0,0.0
10718,20.93359375,334,114.0,0.0
10719,20.935546875,334,68.0,0.0
10720,20.9375,335,86.0,0.0
10721,20.939453125,335,115.0,0.0
10722,20.94140625,335,104.0,0.0
10723,20.943359375,335,80.0,0.0
10724,20.9453125,335,73.0,0.0
10725,20.947265625,335,121.0,0.0
10726,20.94921875,335,160.0,0.0
10727,20.951171875,335,169.0,0.0
10728,20.953125,335,155.0,0.0
10729,20.955078125,335,118.0,0.0
10730,20.95703125,335,85.0,0.0
10731,20.958984375,335,96.0,0.0
10732,20.9609375,335,146.0,0.0
10733,20.962890625,335,150.0,0.0
10734,20.96484375,335,122.0,0.0
10735,20.966796875,335,113.0,0.0
10736,20.96875,335,108.0,0.0
10737,20.970703125,335,134.0,0.0
10738,20.97265625,335,164.0,0.0
10739,20.974609375,335,120.0,0.0
10740,20.9765625,335,77.0,0.0
10741,20.978515625,335,89.0,0.0
10742,20.98046875,335,109.0,0.0
10743,20.982421875,335,116.0,0.0
10744,20.984375,335,132.0,0.0
10745,20.986328125,335,169.0,0.0
10746,20.98828125,335,187.0,0.0
10747,20.990234375,335,139.0,0.0
10748,20.9921875,335,68.0,0.0
10749,20.994140625,335,59.0,0.0
10750,20.99609375,335,66.0,0.0
10751,20.998046875,335,50.0,0.0
10752,21.0,336,72.0,0.0
10753,21.001953125,336,72.0,0.0
10754,21.00390625,336,49.0,0.0
10755,21.005859375,336,88.0,0.0
10756,21.0078125,336,162.0,0.0
10757,21.009765625,336,228.0,0.0
10758,21.01171875,336,257.0,0.0
10759,21.013671875,336,208.0,0.0
10760,21.015625,336,120.0,0.0
10761,21.017578125,336,92.0,0.0
10762,21.01953125,336,134.0,0.0
10763,21.021484375,336,128.0,0.0
10764,21.0234375,336,105.0,0.0
10765,21.025390625,336,104.0,0.0
10766,21.02734375,336,117.0,0.0
10767,21.029296875,336,104.0,0.0
10768,21.03125,336,137.0,0.0
10769,21.033203125,336,178.0,0.0
10770,21.03515625,336,170.0,0.0
10771,21.037109375,336,173.0,0.0
10772,21.0390625,336,154.0,0.0
10773,21.041015625,336,75.0,0.0
10774,21.04296875,336,-22.0,0.0
10775,21.044921875,336,-52.0,0.0
10776,21.046875,336,25.0,0.0
10777,21.048828125,336,84.0,0.0
10778,21.05078125,336,81.0,0.0
10779,21.052734375,336,80.0,0.0
10780,21.0546875,336,108.0,0.0
10781,21.056640625,336,137.0,0.0
10782,21.05859375,336,123.0,0.0
10783,21.060546875,336,138.0,0.0
10784,21.0625,337,130.0,0.0
10785,21.064453125,337,51.0,0.0
10786,21.06640625,337,-33.0,0.0
10787,21.068359375,337,-97.0,0.0
10788,21.0703125,337,-97.0,0.0
10789,21.072265625,337,-59.0,0.0
10790,21.07421875,337,-30.0,0.0
10791,21.076171875,337,-9.0,0.0
10792,21.078125,337,16.0,0.0
10793,21.080078125,337,53.0,0.0
10794,21.08203125,337,98.0,0.0
10795,21.083984375,337,147.0,0.0
10796,21.0859375,337,188.0,0.0
10797,21.087890625,337,152.0,0.0
10798,21.08984375,337,48.0,0.0
10799,21.091796875,337,-13.0,0.0
10800,21.09375,337,-14.0,0.0
10801,21.095703125,337,26.0,0.0
10802,21.09765625,337,146.0,0.0
10803,21.099609375,337,209.0,0.0
10804,21.1015625,337,125.0,0.0
10805,21.103515625,337,6.0,0.0
10806,21.10546875,337,-116.0,0.0
10807,21.107421875,337,-91.0,0.0
10808,21.109375,337,115.0,0.0
10809,21.111328125,337,296.0,0.0
10810,21.11328125,337,221.0,0.0
10811,21.115234375,337,-2.0,0.0
10812,21.1171875,337,-98.0,0.0
10813,21.119140625,337,-34.0,0.0
10814,21.12109375,337,214.0,0.0
10815,21.123046875,337,326.0,0.0
10816,21.125,338,184.0,0.0
10817,21.126953125,338,58.0,0.0
10818,21.12890625,338,-1.0,0.0
10819,21.130859375,338,-168.0,0.0
10820,21.1328125,338,-78.0,0.0
10821,21.134765625,338,224.0,0.0
10822,21.13671875,338,311.0,0.0
10823,21.138671875,338,233.0,0.0
10824,21.140625,338,235.0,0.0
10825,21.142578125,338,299.0,0.0
10826,21.14453125,338,-123.0,0.0
10827,21.146484375,338,-612.0,0.0
10828,21.1484375,338,-433.0,0.0
10829,21.150390625,338,235.0,0.0
10830,21.15234375,338,540.0,0.0
10831,21.154296875,338,260.0,0.0
10832,21.15625,338,-152.0,0.0
10833,21.158203125,338,4.0,0.0
10834,21.16015625,338,90.0,0.0
10835,21.162109375,338,-497.0,0.0
10836,21.1640625,338,-908.0,0.0
10837,21.166015625,338,-762.0,0.0
10838,21.16796875,338,-487.0,0.0
10839,21.169921875,338,-458.0,0.0
10840,21.171875,338,-614.0,0.0
10841,21.173828125,338,-529.0,0.0
10842,21.17578125,338,-217.0,0.0
10843,21.177734375,338,48.0,0.0
10844,21.1796875,338,-87.0,0.0
10845,21.181640625,338,-343.0,0.0
10846,21.18359375,338,-521.0,0.0
10847,21.185546875,338,-549.0,0.0
10848,21.1875,339,-562.0,0.0
10849,21.189453125,339,-508.0,0.0
10850,21.19140625,339,136.0,0.0
10851,21.193359375,339,1418.0,0.0
10852,21.1953125,339,1876.0,0.0
10853,21.197265625,339,743.0,0.0
10854,21.19921875,339,-438.0,0.0
10855,21.201171875,339,-215.0,0.0
10856,21.203125,339,660.0,0.0
10857,21.205078125,339,965.0,0.0
10858,21.20703125,339,-141.0,0.0
10859,21.208984375,339,-1365.0,0.0
10860,21.2109375,339,-1434.0,0.0
10861,21.212890625,339,-462.0,0.0
10862,21.21484375,339,576.0,0.0
10863,21.216796875,339,728.0,0.0
10864,21.21875,339,274.0,0.0
10865,21.220703125,339,-307.0,0.0
10866,21.22265625,339,-817.0,0.0
10867,21.224609375,339,-1086.0,0.0
10868,21.2265625,339,-978.0,0.0
10869,21.228515625,339,-712.0,0.0
10870,21.23046875,339,-637.0,0.0
10871,21.232421875,339,-630.0,0.0
10872,21.234375,339,-708.0,0.0
10873,21.236328125,339,-711.0,0.0
10874,21.23828125,339,-502.0,0.0
10875,21.240234375,339,-289.0,0.0
10876,21.2421875,339,-190.0,0.0
10877,21.244140625,339,-266.0,0.0
10878,21.24609375,339,-397.0,0.0
10879,21.248046875,339,-474.0,0.0
10880,21.25,340,-478.0,0.0
10881,21.251953125,340,-345.0,0.0
10882,21.25390625,340,-266.0,0.0
10883,21.255859375,340,-275.0,0.0
10884,21.2578125,340,-216.0,0.0
10885,21.259765625,340,-182.0,0.0
10886,21.26171875,340,-165.0,0.0
10887,21.263671875,340,-183.0,0.0
10888,21.265625,340,-202.0,0.0
10889,21.267578125,340,-169.0,0.0
10890,21.26953125,340,-142.0,0.0
10891,21.271484375,340,-147.0,0.0
10892,21.2734375,340,-83.0,0.0
10893,21.275390625,340,-1.0,0.0
10894,21.27734375,340,50.0,0.0
10895,21.279296875,340,34.0,0.0
10896,21.28125,340,-30.0,0.0
10897,21.283203125,340,-106.0,0.0
10898,21.28515625,340,-142.0,0.0
10899,21.287109375,340,-114.0,0.0
10900,21.2890625,340,-14.0,0.0
10901,21.291015625,340,69.0,0.0
10902,21.29296875,340,138.0,0.0
10903,21.294921875,340,202.0,0.0
10904,21.296875,340,173.0,0.0
10905,21.298828125,340,72.0,0.0
10906,21.30078125,340,-10.0,0.0
10907,21.302734375,340,-39.0,0.0
10908,21.3046875,340,-1.0,0.0
10909,21.306640625,340,80.0,0.0
10910,21.30859375,340,163.0,0.0
10911,21.310546875,340,210.0,0.0
10912,21.3125,341,218.0,0.0
10913,21.314453125,341,231.0,0.0
10914,21.31640625,341,265.0,0.0
10915,21.318359375,341,265.0,0.0
10916,21.3203125,341,264.0,0.0
10917,21.322265625,341,235.0,0.0
10918,21.32421875,341,129.0,0.0
10919,21.326171875,341,4.0,0.0
10920,21.328125,341,-55.0,0.0
10921,21.330078125,341,-19.0,0.0
10922,21.33203125,341,71.0,0.0
10923,21.333984375,341,89.0,0.0
10924,21.3359375,341,33.0,0.0
10925,21.337890625,341,-11.0,0.0
10926,21.33984375,341,9.0,0.0
10927,21.341796875,341,82.0,0.0
10928,21.34375,341,91.0,0.0
10929,21.345703125,341,52.0,0.0
10930,21.34765625,341,27.0,0.0
10931,21.349609375,341,58.0,0.0
10932,21.3515625,341,93.0,0.0
10933,21.353515625,341,105.0,0.0
10934,21.35546875,341,66.0,0.0
10935,21.357421875,341,3.0,0.0
10936,21.359375,341,21.0,0.0
10937,21.361328125,341,104.0,0.0
10938,21.36328125,341,156.0,0.0
10939,21.365234375,341,170.0,0.0
10940,21.3671875,341,187.0,0.0
10941,21.369140625,341,221.0,0.0
10942,21.37109375,341,201.0,0.0
10943,21.373046875,341,61.0,0.0
10944,21.375,342,-12.0,0.0
10945,21.376953125,342,58.0,0.0
10946,21.37890625,342,180.0,0.0
10947,21.380859375,342,192.0,0.0
10948,21.3828125,342,86.0,0.0
10949,21.384765625,342,0.0,0.0
10950,21.38671875,342,27.0,0.0
10951,21.388671875,342,108.0,0.0
10952,21.390625,342,139.0,0.0
10953,21.392578125,342,104.0,0.0
10954,21.39453125,342,100.0,0.0
10955,21.396484375,342,130.0,0.0
10956,21.3984375,342,114.0,0.0
10957,21.400390625,342,69.0,0.0
10958,21.40234375,342,91.0,0.0
10959,21.404296875,342,113.0,0.0
10960,21.40625,342,138.0,0.0
10961,21.408203125,342,246.0,0.0
10962,21.41015625,342,276.0,0.0
10963,21.412109375,342,169.0,0.0
10964,21.4140625,342,162.0,0.0
10965,21.416015625,342,244.0,0.0
10966,21.41796875,342,275.0,0.0
10967,21.419921875,342,285.0,0.0
10968,21.421875,342,264.0,0.0
10969,21.423828125,342,202.0,0.0
10970,21.42578125,342,185.0,0.0
10971,21.427734375,342,185.0,0.0
10972,21.4296875,342,205.0,0.0
10973,21.431640625,342,242.0,0.0
10974,21.43359375,342,273.0,0.0
10975,21.435546875,342,227.0,0.0
10976,21.4375,343,145.0,0.0
10977,21.439453125,343,138.0,0.0
10978,21.44140625,343,188.0,0.0
10979,21.443359375,343,220.0,0.0
10980,21.4453125,343,202.0,0.0
10981,21.447265625,343,145.0,0.0
10982,21.44921875,343,123.0,0.0
10983,21.451171875,343,153.0,0.0
10984,21.453125,343,201.0,0.0
10985,21.455078125,343,226.0,0.0
10986,21.45703125,343,229.0,0.0
10987,21.458984375,343,273.0,0.0
10988,21.4609375,343,282.0,0.0
10989,21.462890625,343,268.0,0.0
10990,21.46484375,343,310.0,0.0
10991,21.466796875,343,337.0,0.0
10992,21.46875,343,375.0,0.0
10993,21.470703125,343,403.0,0.0
10994,21.47265625,343,353.0,0.0
10995,21.474609375,343,320.0,0.0
10996,21.4765625,343,311.0,0.0
10997,21.478515625,343,272.0,0.0
10998,21.48046875,343,252.0,0.0
10999,21.482421875,343,280.0,0.0
11000,21.484375,343,290.0,0.0
11001,21.486328125,343,244.0,0.0
11002,21.48828125,343,201.0,0.0
11003,21.490234375,343,171.0,0.0
11004,21.4921875,343,184.0,0.0
11005,21.494140625,343,217.0,0.0
11006,21.49609375,343,276.0,0.0
11007,21.498046875,343,307.0,0.0
11008,21.5,344,215.0,0.0
11009,21.501953125,344,109.0,0.0
11010,21.50390625,344,85.0,0.0
11011,21.505859375,344,150.0,0.0
11012,21.5078125,344,209.0,0.0
11013,21.509765625,344,121.0,0.0
11014,21.51171875,344,9.0,0.0
11015,21.513671875,344,83.0,0.0
11016,21.515625,344,230.0,0.0
11017,21.517578125,344,250.0,0.0
11018,21.51953125,344,193.0,0.0
11019,21.521484375,344,161.0,0.0
11020,21.5234375,344,123.0,0.0
11021,21.525390625,344,137.0,0.0
11022,21.52734375,344,197.0,0.0
11023,21.529296875,344,180.0,0.0
11024,21.53125,344,23.0,0.0
11025,21.533203125,344,-61.0,0.0
11026,21.53515625,344,-7.0,0.0
11027,21.537109375,344,-1.0,0.0
11028,21.5390625,344,-58.0,0.0
11029,21.541015625,344,-85.0,0.0
11030,21.54296875,344,-71.0,0.0
11031,21.544921875,344,-67.0,0.0
11032,21.546875,344,-60.0,0.0
11033,21.548828125,344,-86.0,0.0
11034,21.55078125,344,-78.0,0.0
11035,21.552734375,344,-35.0,0.0
11036,21.5546875,344,16.0,0.0
11037,21.556640625,344,70.0,0.0
11038,21.55859375,344,86.0,0.0
11039,21.560546875,344,36.0,0.0
11040,21.5625,345,-17.0,0.0
11041,21.564453125,345,3.0,0.0
11042,21.56640625,345,44.0,0.0
11043,21.568359375,345,2.0,0.0
11044,21.5703125,345,-70.0,0.0
11045,21.572265625,345,-108.0,0.0
11046,21.57421875,345,-110.0,0.0
11047,21.576171875,345,-66.0,0.0
11048,21.578125,345,25.0,0.0
11049,21.580078125,345,13.0,0.0
11050,21.58203125,345,-145.0,0.0
11051,21.583984375,345,-130.0,0.0
11052,21.5859375,345,85.0,0.0
11053,21.587890625,345,231.0,0.0
11054,21.58984375,345,215.0,0.0
11055,21.591796875,345,113.0,0.0
11056,21.59375,345,20.0,0.0
11057,21.595703125,345,2.0,0.0
11058,21.59765625,345,7.0,0.0
11059,21.599609375,345,-34.0,0.0
11060,21.6015625,345,-38.0,0.0
11061,21.603515625,345,16.0,0.0
11062,21.60546875,345,4.0,0.0
11063,21.607421875,345,-10.0,0.0
11064,21.609375,345,28.0,0.0
11065,21.611328125,345,83.0,0.0
11066,21.61328125,345,42.0,0.0
11067,21.615234375,345,4.0,0.0
11068,21.6171875,345,83.0,0.0
11069,21.619140625,345,144.0,0.0
11070,21.62109375,345,60.0,0.0
11071,21.623046875,345,-65.0,0.0
11072,21.625,346,-75.0,0.0
11073,21.626953125,346,51.0,0.0
11074,21.62890625,346,183.0,0.0
11075,21.630859375,346,243.0,0.0
11076,21.6328125,346,128.0,0.0
11077,21.634765625,346,-12.0,0.0
11078,21.63671875,346,-46.0,0.0
11079,21.638671875,346,-43.0,0.0
11080,21.640625,346,-57.0,0.0
11081,21.642578125,346,-99.0,0.0
11082,21.64453125,346,-107.0,0.0
11083,21.646484375,346,-56.0,0.0
11084,21.6484375,346,18.0,0.0
11085,21.650390625,346,-55.0,0.0
11086,21.65234375,346,-212.0,0.0
11087,21.654296875,346,-246.0,0.0
11088,21.65625,346,-172.0,0.0
11089,21.658203125,346,-138.0,0.0
11090,21.66015625,346,-150.0,0.0
11091,21.662109375,346,-165.0,0.0
11092,21.6640625,346,-164.0,0.0
11093,21.666015625,346,-54.0,0.0
11094,21.66796875,346,42.0,0.0
11095,21.669921875,346,73.0,0.0
11096,21.671875,346,17.0,0.0
11097,21.673828125,346,-45.0,0.0
11098,21.67578125,346,11.0,0.0
11099,21.677734375,346,52.0,0.0
11100,21.6796875,346,-119.0,0.0
11101,21.681640625,346,-289.0,0.0
11102,21.68359375,346,-214.0,0.0
11103,21.685546875,346,4.0,0.0
11104,21.6875,347,172.0,0.0
11105,21.689453125,347,101.0,0.0
11106,21.69140625,347,-85.0,0.0
11107,21.693359375,347,-138.0,0.0
11108,21.6953125,347,-102.0,0.0
11109,21.697265625,347,-124.0,0.0
11110,21.69921875,347,-138.0,0.0
11111,21.701171875,347,-70.0,0.0
11112,21.703125,347,36.0,0.0
11113,21.705078125,347,163.0,0.0
11114,21.70703125,347,248.0,0.0
11115,21.708984375,347,146.0,0.0
11116,21.7109375,347,18.0,0.0
11117,21.712890625,347,61.0,0.0
11118,21.71484375,347,165.0,0.0
11119,21.716796875,347,183.0,0.0
11120,21.71875,347,154.0,0.0
11121,21.720703125,347,109.0,0.0
11122,21.72265625,347,93.0,0.0
11123,21.724609375,347,133.0,0.0
11124,21.7265625,347,188.0,0.0
11125,21.728515625,347,139.0,0.0
11126,21.73046875,347,38.0,0.0
11127,21.732421875,347,73.0,0.0
11128,21.734375,347,96.0,0.0
11129,21.736328125,347,-3.0,0.0
11130,21.73828125,347,-25.0,0.0
11131,21.740234375,347,92.0,0.0
11132,21.7421875,347,164.0,0.0
11133,21.744140625,347,152.0,0.0
11134,21.74609375,347,101.0,0.0
11135,21.748046875,347,73.0,0.0
11136,21.75,348,84.0,0.0
11137,21.751953125,348,81.0,0.0
11138,21.75390625,348,3.0,0.0
11139,21.755859375,348,-92.0,0.0
11140,21.7578125,348,-117.0,0.0
11141,21.759765625,348,-1.0,0.0
11142,21.76171875,348,88.0,0.0
11143,21.763671875,348,86.0,0.0
11144,21.765625,348,228.0,33552.0
11145,21.767578125,348,231.0,0.0
11146,21.76953125,348,138.0,0.0
11147,21.771484375,348,-12.0,0.0
11148,21.7734375,348,-165.0,0.0
11149,21.775390625,348,-155.0,0.0
11150,21.77734375,348,-92.0,0.0
11151,21.779296875,348,-76.0,0.0
11152,21.78125,348,-83.0,0.0
11153,21.783203125,348,-103.0,0.0
11154,21.78515625,348,-93.0,0.0
11155,21.787109375,348,-18.0,0.0
11156,21.7890625,348,121.0,0.0
11157,21.791015625,348,244.0,0.0
11158,21.79296875,348,394.0,0.0
11159,21.794921875,348,503.0,0.0
11160,21.796875,348,345.0,0.0
11161,21.798828125,348,241.0,0.0
11162,21.80078125,348,228.0,0.0
11163,21.802734375,348,291.0,0.0
11164,21.8046875,348,339.0,0.0
11165,21.806640625,348,221.0,0.0
11166,21.80859375,348,-42.0,0.0
11167,21.810546875,348,-299.0,0.0
11168,21.8125,349,-263.0,0.0
11169,21.814453125,349,-74.0,0.0
11170,21.81640625,349,-102.0,0.0
11171,21.818359375,349,-317.0,0.0
11172,21.8203125,349,-386.0,0.0
11173,21.822265625,349,-281.0,0.0
11174,21.82421875,349,-85.0,0.0
11175,21.826171875,349,147.0,0.0
11176,21.828125,349,194.0,0.0
11177,21.830078125,349,3.0,0.0
11178,21.83203125,349,-194.0,0.0
11179,21.833984375,349,-201.0,0.0
11180,21.8359375,349,-85.0,0.0
11181,21.837890625,349,8.0,0.0
11182,21.83984375,349,134.0,0.0
11183,21.841796875,349,391.0,0.0
11184,21.84375,349,728.0,0.0
11185,21.845703125,349,884.0,0.0
11186,21.84765625,349,676.0,0.0
11187,21.849609375,349,396.0,0.0
11188,21.8515625,349,416.0,0.0
11189,21.853515625,349,426.0,0.0
11190,21.85546875,349,106.0,0.0
11191,21.857421875,349,-342.0,0.0
11192,21.859375,349,-709.0,0.0
11193,21.861328125,349,-786.0,0.0
11194,21.86328125,349,-556.0,0.0
11195,21.865234375,349,-391.0,0.0
11196,21.8671875,349,-366.0,0.0
11197,21.869140625,349,-295.0,0.0
11198,21.87109375,349,-237.0,0.0
11199,21.873046875,349,-170.0,0.0
11200,21.875,350,-12.0,0.0
11201,21.876953125,350,-46.0,0.0
11202,21.87890625,350,-215.0,0.0
11203,21.880859375,350,-227.0,0.0
11204,21.8828125,350,-116.0,0.0
11205,21.884765625,350,93.0,0.0
11206,21.88671875,350,224.0,0.0
11207,21.888671875,350,-70.0,0.0
11208,21.890625,350,-449.0,0.0
11209,21.892578125,350,-601.0,0.0
11210,21.89453125,350,-489.0,0.0
11211,21.896484375,350,-356.0,0.0
11212,21.8984375,350,-328.0,0.0
11213,21.900390625,350,-290.0,0.0
11214,21.90234375,350,-243.0,0.0
11215,21.904296875,350,-242.0,0.0
11216,21.90625,350,-197.0,0.0
11217,21.908203125,350,-33.0,0.0
11218,21.91015625,350,75.0,0.0
11219,21.912109375,350,21.0,0.0
11220,21.9140625,350,-82.0,0.0
11221,21.916015625,350,-148.0,0.0
11222,21.91796875,350,-180.0,0.0
11223,21.919921875,350,-155.0,0.0
11224,21.921875,350,-72.0,0.0
11225,21.923828125,350,22.0,0.0
11226,21.92578125,350,40.0,0.0
11227,21.927734375,350,42.0,0.0
11228,21.9296875,350,57.0,0.0
11229,21.931640625,350,35.0,0.0
11230,21.93359375,350,-45.0,0.0
11231,21.935546875,350,-84.0,0.0
11232,21.9375,351,-28.0,0.0
11233,21.939453125,351,85.0,0.0
11234,21.94140625,351,177.0,0.0
11235,21.943359375,351,183.0,0.0
11236,21.9453125,351,109.0,0.0
11237,21.947265625,351,22.0,0.0
11238,21.94921875,351,3.0,0.0
11239,21.951171875,351,32.0,33553.0
11240,21.953125,351,32.0,33554.0
11241,21.955078125,351,29.0,0.0
11242,21.95703125,351,36.0,0.0
11243,21.958984375,351,36.0,0.0
11244,21.9609375,351,93.0,0.0
11245,21.962890625,351,184.0,0.0
11246,21.96484375,351,181.0,0.0
11247,21.966796875,351,80.0,0.0
11248,21.96875,351,-18.0,0.0
11249,21.970703125,351,-37.0,0.0
11250,21.97265625,351,-37.0,0.0
11251,21.974609375,351,-24.0,0.0
11252,21.9765625,351,-24.0,0.0
11253,21.978515625,351,-75.0,0.0
11254,21.98046875,351,-94.0,0.0
11255,21.982421875,351,-45.0,0.0
11256,21.984375,351,22.0,0.0
11257,21.986328125,351,40.0,0.0
11258,21.98828125,351,10.0,0.0
11259,21.990234375,351,5.0,0.0
11260,21.9921875,351,2.0,0.0
11261,21.994140625,351,-108.0,0.0
11262,21.99609375,351,-266.0,0.0
11263,21.998046875,351,-217.0,0.0
11264,22.0,352,-19.0,0.0
11265,22.001953125,352,22.0,0.0
11266,22.00390625,352,-22.0,0.0
11267,22.005859375,352,-33.0,0.0
11268,22.0078125,352,-49.0,0.0
11269,22.009765625,352,-94.0,0.0
11270,22.01171875,352,-121.0,0.0
11271,22.013671875,352,-118.0,0.0
11272,22.015625,352,-109.0,0.0
11273,22.017578125,352,-121.0,0.0
11274,22.01953125,352,-119.0,0.0
11275,22.021484375,352,-71.0,0.0
11276,22.0234375,352,-53.0,0.0
11277,22.025390625,352,-82.0,0.0
11278,22.02734375,352,-46.0,0.0
11279,22.029296875,352,-3.0,0.0
11280,22.03125,352,3.0,0.0
11281,22.033203125,352,36.0,0.0
11282,22.03515625,352,21.0,0.0
11283,22.037109375,352,-90.0,0.0
11284,22.0390625,352,-135.0,0.0
11285,22.041015625,352,-40.0,0.0
11286,22.04296875,352,89.0,0.0
11287,22.044921875,352,173.0,0.0
11288,22.046875,352,156.0,0.0
11289,22.048828125,352,172.0,0.0
11290,22.05078125,352,236.0,0.0
11291,22.052734375,352,204.0,0.0
11292,22.0546875,352,97.0,0.0
11293,22.056640625,352,83.0,0.0
11294,22.05859375,352,171.0,0.0
11295,22.060546875,352,208.0,0.0
11296,22.0625,353,113.0,0.0
11297,22.064453125,353,59.0,0.0
11298,22.06640625,353,161.0,0.0
11299,22.068359375,353,282.0,0.0
11300,22.0703125,353,338.0,0.0
11301,22.072265625,353,385.0,0.0
11302,22.07421875,353,436.0,0.0
11303,22.076171875,353,436.0,0.0
11304,22.078125,353,434.0,0.0
11305,22.080078125,353,424.0,0.0
11306,22.08203125,353,375.0,0.0
11307,22.083984375,353,330.0,0.0
11308,22.0859375,353,333.0,0.0
11309,22.087890625,353,348.0,0.0
11310,22.08984375,353,332.0,0.0
11311,22.091796875,353,280.0,0.0
11312,22.09375,353,234.0,0.0
11313,22.095703125,353,240.0,0.0
11314,22.09765625,353,272.0,0.0
11315,22.099609375,353,308.0,0.0
11316,22.1015625,353,292.0,0.0
11317,22.103515625,353,249.0,0.0
11318,22.10546875,353,234.0,0.0
11319,22.107421875,353,202.0,0.0
11320,22.109375,353,192.0,0.0
11321,22.111328125,353,248.0,0.0
11322,22.11328125,353,273.0,0.0
11323,22.115234375,353,225.0,0.0
11324,22.1171875,353,176.0,0.0
11325,22.119140625,353,166.0,0.0
11326,22.12109375,353,179.0,0.0
11327,22.123046875,353,215.0,0.0
11328,22.125,354,246.0,0.0
11329,22.126953125,354,229.0,0.0
11330,22.12890625,354,179.0,0.0
11331,22.130859375,354,124.0,0.0
11332,22.1328125,354,118.0,0.0
11333,22.134765625,354,163.0,0.0
11334,22.13671875,354,203.0,0.0
11335,22.138671875,354,210.0,0.0
11336,22.140625,354,202.0,0.0
11337,22.142578125,354,204.0,0.0
11338,22.14453125,354,198.0,0.0
11339,22.146484375,354,171.0,0.0
11340,22.1484375,354,134.0,0.0
11341,22.150390625,354,144.0,0.0
11342,22.15234375,354,178.0,0.0
11343,22.154296875,354,170.0,0.0
11344,22.15625,354,133.0,0.0
11345,22.158203125,354,97.0,0.0
11346,22.16015625,354,108.0,0.0
11347,22.162109375,354,156.0,0.0
11348,22.1640625,354,140.0,0.0
11349,22.166015625,354,117.0,0.0
11350,22.16796875,354,141.0,0.0
11351,22.169921875,354,165.0,0.0
11352,22.171875,354,131.0,0.0
11353,22.173828125,354,70.0,0.0
11354,22.17578125,354,70.0,0.0
11355,22.177734375,354,136.0,0.0
11356,22.1796875,354,197.0,0.0
11357,22.181640625,354,198.0,0.0
11358,22.18359375,354,165.0,0.0
11359,22.185546875,354,156.0,0.0
11360,22.1875,355,179.0,0.0
11361,22.189453125,355,178.0,0.0
11362,22.19140625,355,150.0,0.0
11363,22.193359375,355,154.0,0.0
11364,22.1953125,355,189.0,0.0
11365,22.197265625,355,182.0,0.0
11366,22.19921875,355,108.0,0.0
11367,22.201171875,355,77.0,0.0
11368,22.203125,355,107.0,0.0
11369,22.205078125,355,135.0,0.0
11370,22.20703125,355,129.0,0.0
11371,22.208984375,355,119.0,0.0
11372,22.2109375,355,124.0,0.0
11373,22.212890625,355,151.0,0.0
11374,22.21484375,355,160.0,0.0
11375,22.216796875,355,165.0,0.0
11376,22.21875,355,186.0,0.0
11377,22.220703125,355,185.0,0.0
11378,22.22265625,355,163.0,0.0
11379,22.224609375,355,134.0,0.0
11380,22.2265625,355,96.0,0.0
11381,22.228515625,355,91.0,0.0
11382,22.23046875,355,114.0,0.0
11383,22.232421875,355,115.0,0.0
11384,22.234375,355,121.0,0.0
11385,22.236328125,355,145.0,0.0
11386,22.23828125,355,140.0,0.0
11387,22.240234375,355,119.0,0.0
11388,22.2421875,355,129.0,0.0
11389,22.244140625,355,138.0,0.0
11390,22.24609375,355,150.0,0.0
11391,22.248046875,355,164.0,0.0
11392,22.25,356,172.0,0.0
11393,22.251953125,356,148.0,0.0
11394,22.25390625,356,81.0,0.0
11395,22.255859375,356,26.0,0.0
11396,22.2578125,356,35.0,0.0
11397,22.259765625,356,115.0,0.0
11398,22.26171875,356,187.0,0.0
11399,22.263671875,356,132.0,0.0
11400,22.265625,356,26.0,0.0
11401,22.267578125,356,10.0,0.0
11402,22.26953125,356,68.0,0.0
11403,22.271484375,356,121.0,0.0
11404,22.2734375,356,133.0,0.0
11405,22.275390625,356,121.0,0.0
11406,22.27734375,356,101.0,0.0
11407,22.279296875,356,71.0,0.0
11408,22.28125,356,42.0,0.0
11409,22.283203125,356,59.0,0.0
11410,22.28515625,356,101.0,0.0
11411,22.287109375,356,120.0,0.0
11412,22.2890625,356,105.0,0.0
11413,22.291015625,356,50.0,0.0
11414,22.29296875,356,32.0,0.0
11415,22.294921875,356,45.0,0.0
11416,22.296875,356,32.0,0.0
11417,22.298828125,356,24.0,0.0
11418,22.30078125,356,18.0,0.0
11419,22.302734375,356,9.0,0.0
11420,22.3046875,356,36.0,0.0
11421,22.306640625,356,43.0,0.0
11422,22.30859375,356,7.0,0.0
11423,22.310546875,356,-58.0,0.0
11424,22.3125,357,-123.0,0.0
11425,22.314453125,357,-117.0,0.0
11426,22.31640625,357,-62.0,0.0
11427,22.318359375,357,-22.0,0.0
11428,22.3203125,357,16.0,0.0
11429,22.322265625,357,57.0,0.0
11430,22.32421875,357,82.0,0.0
11431,22.326171875,357,44.0,0.0
11432,22.328125,357,-13.0,0.0
11433,22.330078125,357,-45.0,0.0
11434,22.33203125,357,-71.0,0.0
11435,22.333984375,357,-101.0,0.0
11436,22.3359375,357,-76.0,0.0
11437,22.337890625,357,-30.0,0.0
11438,22.33984375,357,-17.0,0.0
11439,22.341796875,357,1.0,0.0
11440,22.34375,357,26.0,0.0
11441,22.345703125,357,42.0,0.0
11442,22.34765625,357,67.0,0.0
11443,22.349609375,357,60.0,0.0
11444,22.3515625,357,-12.0,0.0
11445,22.353515625,357,-86.0,0.0
11446,22.35546875,357,-90.0,0.0
11447,22.357421875,357,-92.0,0.0
11448,22.359375,357,-121.0,0.0
11449,22.361328125,357,-78.0,0.0
11450,22.36328125,357,18.0,0.0
11451,22.365234375,357,66.0,0.0
11452,22.3671875,357,9.0,0.0
11453,22.369140625,357,-25.0,0.0
11454,22.37109375,357,-1.0,0.0
11455,22.373046875,357,20.0,0.0
11456,22.375,358,19.0,0.0
11457,22.376953125,358,26.0,0.0
11458,22.37890625,358,-46.0,0.0
11459,22.380859375,358,-99.0,0.0
11460,22.3828125,358,-72.0,0.0
11461,22.384765625,358,-37.0,0.0
11462,22.38671875,358,-29.0,0.0
11463,22.388671875,358,-18.0,0.0
11464,22.390625,358,26.0,0.0
11465,22.392578125,358,17.0,0.0
11466,22.39453125,358,-37.0,0.0
11467,22.396484375,358,-24.0,0.0
11468,22.3984375,358,44.0,0.0
11469,22.400390625,358,43.0,0.0
11470,22.40234375,358,17.0,0.0
11471,22.404296875,358,-44.0,0.0
11472,22.40625,358,-90.0,0.0
11473,22.408203125,358,-53.0,0.0
11474,22.41015625,358,-28.0,0.0
11475,22.412109375,358,10.0,0.0
11476,22.4140625,358,37.0,0.0
11477,22.416015625,358,-10.0,0.0
11478,22.41796875,358,-66.0,0.0
11479,22.419921875,358,-38.0,0.0
11480,22.421875,358,-37.0,0.0
11481,22.423828125,358,-82.0,0.0
11482,22.42578125,358,-54.0,0.0
11483,22.427734375,358,52.0,0.0
11484,22.4296875,358,92.0,0.0
11485,22.431640625,358,49.0,0.0
11486,22.43359375,358,-45.0,0.0
11487,22.435546875,358,-44.0,0.0
11488,22.4375,359,-4.0,0.0
11489,22.439453125,359,53.0,0.0
11490,22.44140625,359,149.0,0.0
11491,22.443359375,359,164.0,0.0
11492,22.4453125,359,128.0,0.0
11493,22.447265625,359,4.0,0.0
11494,22.44921875,359,-125.0,0.0
11495,22.451171875,359,-124.0,0.0
11496,22.453125,359,-54.0,0.0
11497,22.455078125,359,-6.0,0.0
11498,22.45703125,359,-75.0,0.0
11499,22.458984375,359,-167.0,0.0
11500,22.4609375,359,-85.0,0.0
11501,22.462890625,359,-163.0,0.0
11502,22.46484375,359,-294.0,0.0
11503,22.466796875,359,-194.0,0.0
11504,22.46875,359,214.0,0.0
11505,22.470703125,359,615.0,0.0
11506,22.47265625,359,473.0,0.0
11507,22.474609375,359,-60.0,0.0
11508,22.4765625,359,-306.0,0.0
11509,22.478515625,359,73.0,0.0
11510,22.48046875,359,546.0,0.0
11511,22.482421875,359,297.0,0.0
11512,22.484375,359,-530.0,0.0
11513,22.486328125,359,-914.0,0.0
11514,22.48828125,359,-637.0,0.0
11515,22.490234375,359,-262.0,0.0
11516,22.4921875,359,-14.0,0.0
11517,22.494140625,359,149.0,0.0
11518,22.49609375,359,515.0,0.0
11519,22.498046875,359,1048.0,0.0
11520,22.5,360,938.0,0.0
11521,22.501953125,360,377.0,0.0
11522,22.50390625,360,-209.0,0.0
11523,22.505859375,360,-545.0,0.0
11524,22.5078125,360,-568.0,0.0
11525,22.509765625,360,-668.0,0.0
11526,22.51171875,360,-1012.0,0.0
11527,22.513671875,360,-1191.0,0.0
