,Time:512Hz,Epoch,Electrode,Event Id
1024,179.0,2864,38.0,0.0
1025,179.001953125,2864,38.0,0.0
1026,179.00390625,2864,38.0,0.0
1027,179.005859375,2864,38.0,0.0
1028,179.0078125,2864,38.0,0.0
1029,179.009765625,2864,38.0,0.0
1030,179.01171875,2864,38.0,0.0
1031,179.013671875,2864,38.0,0.0
1032,179.015625,2864,38.0,0.0
1033,179.017578125,2864,38.0,0.0
1034,179.01953125,2864,38.0,0.0
1035,179.021484375,2864,38.0,0.0
1036,179.0234375,2864,38.0,0.0
1037,179.025390625,2864,38.0,0.0
1038,179.02734375,2864,38.0,0.0
1039,179.029296875,2864,38.0,0.0
1040,179.03125,2864,38.0,0.0
1041,179.033203125,2864,38.0,0.0
1042,179.03515625,2864,38.0,0.0
1043,179.037109375,2864,38.0,0.0
1044,179.0390625,2864,38.0,0.0
1045,179.041015625,2864,38.0,0.0
1046,179.04296875,2864,38.0,0.0
1047,179.044921875,2864,38.0,0.0
1048,179.046875,2864,38.0,0.0
1049,179.048828125,2864,38.0,0.0
1050,179.05078125,2864,38.0,0.0
1051,179.052734375,2864,38.0,0.0
1052,179.0546875,2864,38.0,0.0
1053,179.056640625,2864,38.0,0.0
1054,179.05859375,2864,38.0,0.0
1055,179.060546875,2864,38.0,0.0
1056,179.0625,2865,38.0,0.0
1057,179.064453125,2865,38.0,0.0
1058,179.06640625,2865,38.0,0.0
1059,179.068359375,2865,38.0,0.0
1060,179.0703125,2865,38.0,0.0
1061,179.072265625,2865,38.0,0.0
1062,179.07421875,2865,38.0,0.0
1063,179.076171875,2865,38.0,0.0
1064,179.078125,2865,38.0,0.0
1065,179.080078125,2865,38.0,0.0
1066,179.08203125,2865,38.0,0.0
1067,179.083984375,2865,38.0,0.0
1068,179.0859375,2865,38.0,0.0
1069,179.087890625,2865,38.0,0.0
1070,179.08984375,2865,38.0,0.0
1071,179.091796875,2865,38.0,0.0
1072,179.09375,2865,38.0,0.0
1073,179.095703125,2865,38.0,0.0
1074,179.09765625,2865,38.0,0.0
1075,179.099609375,2865,38.0,0.0
1076,179.1015625,2865,37.0,0.0
1077,179.103515625,2865,37.0,0.0
1078,179.10546875,2865,38.0,0.0
1079,179.107421875,2865,38.0,0.0
1080,179.109375,2865,38.0,0.0
1081,179.111328125,2865,38.0,0.0
1082,179.11328125,2865,38.0,0.0
1083,179.115234375,2865,38.0,0.0
1084,179.1171875,2865,38.0,0.0
1085,179.119140625,2865,38.0,0.0
1086,179.12109375,2865,38.0,0.0
1087,179.123046875,2865,38.0,0.0
1088,179.125,2866,38.0,0.0
1089,179.126953125,2866,38.0,0.0
1090,179.12890625,2866,38.0,0.0
1091,179.130859375,2866,37.0,0.0
1092,179.1328125,2866,38.0,0.0
1093,179.134765625,2866,38.0,0.0
1094,179.13671875,2866,38.0,0.0
1095,179.138671875,2866,38.0,0.0
1096,179.140625,2866,38.0,0.0
1097,179.142578125,2866,38.0,0.0
1098,179.14453125,2866,38.0,0.0
1099,179.146484375,2866,37.0,0.0
1100,179.1484375,2866,38.0,0.0
1101,179.150390625,2866,38.0,0.0
1102,179.15234375,2866,38.0,0.0
1103,179.154296875,2866,38.0,0.0
1104,179.15625,2866,38.0,0.0
1105,179.158203125,2866,38.0,0.0
1106,179.16015625,2866,38.0,0.0
1107,179.162109375,2866,38.0,0.0
1108,179.1640625,2866,38.0,0.0
1109,179.166015625,2866,38.0,0.0
1110,179.16796875,2866,38.0,0.0
1111,179.169921875,2866,38.0,0.0
1112,179.171875,2866,38.0,0.0
1113,179.173828125,2866,38.0,0.0
1114,179.17578125,2866,38.0,0.0
1115,179.177734375,2866,38.0,0.0
1116,179.1796875,2866,38.0,0.0
1117,179.181640625,2866,38.0,0.0
1118,179.18359375,2866,38.0,0.0
1119,179.185546875,2866,38.0,0.0
1120,179.1875,2867,38.0,0.0
1121,179.189453125,2867,38.0,0.0
1122,179.19140625,2867,38.0,0.0
1123,179.193359375,2867,38.0,0.0
1124,179.1953125,2867,37.0,0.0
1125,179.197265625,2867,38.0,0.0
1126,179.19921875,2867,38.0,0.0
1127,179.201171875,2867,38.0,0.0
1128,179.203125,2867,38.0,0.0
1129,179.205078125,2867,38.0,0.0
1130,179.20703125,2867,38.0,0.0
1131,179.208984375,2867,38.0,0.0
1132,179.2109375,2867,38.0,0.0
1133,179.212890625,2867,38.0,0.0
1134,179.21484375,2867,38.0,0.0
1135,179.216796875,2867,38.0,0.0
1136,179.21875,2867,38.0,0.0
1137,179.220703125,2867,38.0,0.0
1138,179.22265625,2867,38.0,0.0
1139,179.224609375,2867,38.0,0.0
1140,179.2265625,2867,38.0,0.0
1141,179.228515625,2867,38.0,0.0
1142,179.23046875,2867,38.0,0.0
1143,179.232421875,2867,38.0,0.0
1144,179.234375,2867,38.0,0.0
1145,179.236328125,2867,38.0,0.0
1146,179.23828125,2867,38.0,0.0
1147,179.240234375,2867,38.0,0.0
1148,179.2421875,2867,38.0,0.0
1149,179.244140625,2867,38.0,0.0
1150,179.24609375,2867,38.0,0.0
1151,179.248046875,2867,38.0,0.0
1152,179.25,2868,38.0,0.0
1153,179.251953125,2868,38.0,0.0
1154,179.25390625,2868,38.0,0.0
1155,179.255859375,2868,37.0,0.0
1156,179.2578125,2868,38.0,0.0
1157,179.259765625,2868,38.0,0.0
1158,179.26171875,2868,38.0,0.0
1159,179.263671875,2868,38.0,33553.0
1160,179.265625,2868,38.0,33554.0
1161,179.267578125,2868,38.0,0.0
1162,179.26953125,2868,38.0,0.0
1163,179.271484375,2868,38.0,0.0
1164,179.2734375,2868,38.0,0.0
1165,179.275390625,2868,38.0,0.0
1166,179.27734375,2868,38.0,0.0
1167,179.279296875,2868,38.0,0.0
1168,179.28125,2868,38.0,0.0
1169,179.283203125,2868,38.0,0.0
1170,179.28515625,2868,38.0,0.0
1171,179.287109375,2868,38.0,0.0
1172,179.2890625,2868,38.0,0.0
1173,179.291015625,2868,38.0,0.0
1174,179.29296875,2868,39.0,0.0
1175,179.294921875,2868,38.0,0.0
1176,179.296875,2868,38.0,0.0
1177,179.298828125,2868,38.0,0.0
1178,179.30078125,2868,38.0,0.0
1179,179.302734375,2868,38.0,0.0
1180,179.3046875,2868,38.0,0.0
1181,179.306640625,2868,38.0,0.0
1182,179.30859375,2868,38.0,0.0
1183,179.310546875,2868,38.0,0.0
1184,179.3125,2869,38.0,0.0
1185,179.314453125,2869,38.0,0.0
1186,179.31640625,2869,38.0,0.0
1187,179.318359375,2869,38.0,0.0
1188,179.3203125,2869,38.0,0.0
1189,179.322265625,2869,38.0,0.0
1190,179.32421875,2869,38.0,0.0
1191,179.326171875,2869,38.0,0.0
1192,179.328125,2869,38.0,0.0
1193,179.330078125,2869,38.0,0.0
1194,179.33203125,2869,38.0,0.0
1195,179.333984375,2869,38.0,0.0
1196,179.3359375,2869,38.0,0.0
1197,179.337890625,2869,38.0,0.0
1198,179.33984375,2869,38.0,0.0
1199,179.341796875,2869,38.0,0.0
1200,179.34375,2869,38.0,0.0
1201,179.345703125,2869,38.0,0.0
1202,179.34765625,2869,38.0,0.0
1203,179.349609375,2869,38.0,0.0
1204,179.3515625,2869,38.0,0.0
1205,179.353515625,2869,39.0,0.0
1206,179.35546875,2869,38.0,0.0
1207,179.357421875,2869,38.0,0.0
1208,179.359375,2869,38.0,0.0
1209,179.361328125,2869,38.0,0.0
1210,179.36328125,2869,38.0,0.0
1211,179.365234375,2869,38.0,0.0
1212,179.3671875,2869,38.0,0.0
1213,179.369140625,2869,38.0,0.0
1214,179.37109375,2869,38.0,0.0
1215,179.373046875,2869,38.0,0.0
1216,179.375,2870,38.0,0.0
1217,179.376953125,2870,38.0,0.0
1218,179.37890625,2870,38.0,0.0
1219,179.380859375,2870,38.0,0.0
1220,179.3828125,2870,38.0,0.0
1221,179.384765625,2870,38.0,0.0
1222,179.38671875,2870,38.0,0.0
1223,179.388671875,2870,38.0,0.0
1224,179.390625,2870,38.0,0.0
1225,179.392578125,2870,38.0,0.0
1226,179.39453125,2870,38.0,0.0
1227,179.396484375,2870,38.0,0.0
1228,179.3984375,2870,38.0,0.0
1229,179.400390625,2870,38.0,0.0
1230,179.40234375,2870,37.0,0.0
1231,179.404296875,2870,38.0,0.0
1232,179.40625,2870,38.0,0.0
1233,179.408203125,2870,38.0,0.0
1234,179.41015625,2870,38.0,0.0
1235,179.412109375,2870,39.0,0.0
1236,179.4140625,2870,39.0,0.0
1237,179.416015625,2870,38.0,0.0
1238,179.41796875,2870,38.0,0.0
1239,179.419921875,2870,38.0,0.0
1240,179.421875,2870,38.0,0.0
1241,179.423828125,2870,38.0,0.0
1242,179.42578125,2870,39.0,0.0
1243,179.427734375,2870,38.0,0.0
1244,179.4296875,2870,38.0,0.0
1245,179.431640625,2870,38.0,0.0
1246,179.43359375,2870,38.0,0.0
1247,179.435546875,2870,38.0,0.0
1248,179.4375,2871,38.0,0.0
1249,179.439453125,2871,38.0,0.0
1250,179.44140625,2871,38.0,0.0
1251,179.443359375,2871,38.0,0.0
1252,179.4453125,2871,38.0,0.0
1253,179.447265625,2871,37.0,0.0
1254,179.44921875,2871,38.0,0.0
1255,179.451171875,2871,38.0,0.0
1256,179.453125,2871,38.0,0.0
1257,179.455078125,2871,38.0,0.0
1258,179.45703125,2871,38.0,0.0
1259,179.458984375,2871,38.0,0.0
1260,179.4609375,2871,38.0,0.0
1261,179.462890625,2871,38.0,0.0
1262,179.46484375,2871,38.0,0.0
1263,179.466796875,2871,38.0,0.0
1264,179.46875,2871,38.0,0.0
1265,179.470703125,2871,38.0,0.0
1266,179.47265625,2871,38.0,0.0
1267,179.474609375,2871,38.0,0.0
1268,179.4765625,2871,38.0,0.0
1269,179.478515625,2871,38.0,0.0
1270,179.48046875,2871,38.0,0.0
1271,179.482421875,2871,38.0,0.0
1272,179.484375,2871,38.0,0.0
1273,179.486328125,2871,38.0,0.0
1274,179.48828125,2871,38.0,0.0
1275,179.490234375,2871,38.0,0.0
1276,179.4921875,2871,38.0,0.0
1277,179.494140625,2871,38.0,0.0
1278,179.49609375,2871,38.0,0.0
1279,179.498046875,2871,38.0,0.0
1280,179.5,2872,38.0,0.0
1281,179.501953125,2872,38.0,0.0
1282,179.50390625,2872,38.0,0.0
1283,179.505859375,2872,38.0,0.0
1284,179.5078125,2872,38.0,0.0
1285,179.509765625,2872,38.0,0.0
1286,179.51171875,2872,38.0,0.0
1287,179.513671875,2872,38.0,0.0
1288,179.515625,2872,38.0,0.0
1289,179.517578125,2872,38.0,0.0
1290,179.51953125,2872,38.0,0.0
1291,179.521484375,2872,38.0,0.0
1292,179.5234375,2872,38.0,0.0
1293,179.525390625,2872,38.0,0.0
1294,179.52734375,2872,38.0,0.0
1295,179.529296875,2872,38.0,0.0
1296,179.53125,2872,38.0,0.0
1297,179.533203125,2872,38.0,0.0
1298,179.53515625,2872,38.0,0.0
1299,179.537109375,2872,38.0,0.0
1300,179.5390625,2872,38.0,0.0
1301,179.541015625,2872,38.0,0.0
1302,179.54296875,2872,38.0,0.0
1303,179.544921875,2872,38.0,0.0
1304,179.546875,2872,39.0,0.0
1305,179.548828125,2872,38.0,0.0
1306,179.55078125,2872,38.0,0.0
1307,179.552734375,2872,38.0,0.0
1308,179.5546875,2872,38.0,0.0
1309,179.556640625,2872,38.0,0.0
1310,179.55859375,2872,38.0,0.0
1311,179.560546875,2872,38.0,0.0
1312,179.5625,2873,38.0,0.0
1313,179.564453125,2873,38.0,0.0
1314,179.56640625,2873,37.0,0.0
1315,179.568359375,2873,38.0,0.0
1316,179.5703125,2873,38.0,0.0
1317,179.572265625,2873,39.0,0.0
1318,179.57421875,2873,38.0,0.0
1319,179.576171875,2873,38.0,0.0
1320,179.578125,2873,38.0,0.0
1321,179.580078125,2873,38.0,0.0
1322,179.58203125,2873,38.0,0.0
1323,179.583984375,2873,38.0,0.0
1324,179.5859375,2873,38.0,0.0
1325,179.587890625,2873,38.0,0.0
1326,179.58984375,2873,38.0,0.0
1327,179.591796875,2873,38.0,0.0
1328,179.59375,2873,38.0,0.0
1329,179.595703125,2873,38.0,0.0
1330,179.59765625,2873,38.0,0.0
1331,179.599609375,2873,38.0,0.0
1332,179.6015625,2873,38.0,0.0
1333,179.603515625,2873,38.0,0.0
1334,179.60546875,2873,38.0,0.0
1335,179.607421875,2873,38.0,0.0
1336,179.609375,2873,38.0,0.0
1337,179.611328125,2873,38.0,0.0
1338,179.61328125,2873,38.0,0.0
1339,179.615234375,2873,38.0,0.0
1340,179.6171875,2873,38.0,0.0
1341,179.619140625,2873,38.0,0.0
1342,179.62109375,2873,38.0,0.0
1343,179.623046875,2873,38.0,0.0
1344,179.625,2874,38.0,0.0
1345,179.626953125,2874,38.0,0.0
1346,179.62890625,2874,38.0,0.0
1347,179.630859375,2874,38.0,0.0
1348,179.6328125,2874,38.0,0.0
1349,179.634765625,2874,38.0,0.0
1350,179.63671875,2874,38.0,0.0
1351,179.638671875,2874,38.0,0.0
1352,179.640625,2874,39.0,0.0
1353,179.642578125,2874,38.0,0.0
1354,179.64453125,2874,38.0,0.0
1355,179.646484375,2874,38.0,0.0
1356,179.6484375,2874,38.0,0.0
1357,179.650390625,2874,38.0,0.0
1358,179.65234375,2874,38.0,0.0
1359,179.654296875,2874,39.0,0.0
1360,179.65625,2874,38.0,0.0
1361,179.658203125,2874,38.0,0.0
1362,179.66015625,2874,38.0,0.0
1363,179.662109375,2874,39.0,0.0
1364,179.6640625,2874,38.0,0.0
1365,179.666015625,2874,39.0,0.0
1366,179.66796875,2874,39.0,0.0
1367,179.669921875,2874,39.0,0.0
1368,179.671875,2874,39.0,0.0
1369,179.673828125,2874,38.0,0.0
1370,179.67578125,2874,38.0,0.0
1371,179.677734375,2874,38.0,0.0
1372,179.6796875,2874,38.0,0.0
1373,179.681640625,2874,38.0,0.0
1374,179.68359375,2874,38.0,0.0
1375,179.685546875,2874,38.0,0.0
1376,179.6875,2875,38.0,0.0
1377,179.689453125,2875,38.0,0.0
1378,179.69140625,2875,38.0,0.0
1379,179.693359375,2875,38.0,0.0
1380,179.6953125,2875,38.0,0.0
1381,179.697265625,2875,38.0,0.0
1382,179.69921875,2875,38.0,0.0
1383,179.701171875,2875,38.0,0.0
1384,179.703125,2875,38.0,0.0
1385,179.705078125,2875,38.0,0.0
1386,179.70703125,2875,38.0,0.0
1387,179.708984375,2875,38.0,0.0
1388,179.7109375,2875,38.0,0.0
1389,179.712890625,2875,38.0,0.0
1390,179.71484375,2875,38.0,0.0
1391,179.716796875,2875,38.0,0.0
1392,179.71875,2875,39.0,0.0
1393,179.720703125,2875,38.0,0.0
1394,179.72265625,2875,38.0,0.0
1395,179.724609375,2875,38.0,0.0
1396,179.7265625,2875,38.0,0.0
1397,179.728515625,2875,38.0,0.0
1398,179.73046875,2875,39.0,0.0
1399,179.732421875,2875,38.0,0.0
1400,179.734375,2875,38.0,0.0
1401,179.736328125,2875,38.0,0.0
1402,179.73828125,2875,38.0,0.0
1403,179.740234375,2875,38.0,0.0
1404,179.7421875,2875,38.0,0.0
1405,179.744140625,2875,38.0,0.0
1406,179.74609375,2875,38.0,0.0
1407,179.748046875,2875,38.0,0.0
1408,179.75,2876,38.0,0.0
1409,179.751953125,2876,38.0,0.0
1410,179.75390625,2876,38.0,0.0
1411,179.755859375,2876,38.0,0.0
1412,179.7578125,2876,38.0,0.0
1413,179.759765625,2876,38.0,0.0
1414,179.76171875,2876,38.0,0.0
1415,179.763671875,2876,38.0,0.0
1416,179.765625,2876,38.0,0.0
1417,179.767578125,2876,38.0,0.0
1418,179.76953125,2876,38.0,0.0
1419,179.771484375,2876,38.0,0.0
1420,179.7734375,2876,38.0,0.0
1421,179.775390625,2876,38.0,0.0
1422,179.77734375,2876,38.0,0.0
1423,179.779296875,2876,38.0,0.0
1424,179.78125,2876,39.0,0.0
1425,179.783203125,2876,38.0,0.0
1426,179.78515625,2876,38.0,0.0
1427,179.787109375,2876,38.0,0.0
1428,179.7890625,2876,38.0,0.0
1429,179.791015625,2876,38.0,0.0
1430,179.79296875,2876,38.0,0.0
1431,179.794921875,2876,38.0,0.0
1432,179.796875,2876,38.0,0.0
1433,179.798828125,2876,38.0,0.0
1434,179.80078125,2876,38.0,0.0
1435,179.802734375,2876,39.0,0.0
1436,179.8046875,2876,38.0,0.0
1437,179.806640625,2876,38.0,0.0
1438,179.80859375,2876,38.0,0.0
1439,179.810546875,2876,38.0,0.0
1440,179.8125,2877,38.0,0.0
1441,179.814453125,2877,38.0,0.0
1442,179.81640625,2877,39.0,0.0
1443,179.818359375,2877,38.0,0.0
1444,179.8203125,2877,38.0,0.0
1445,179.822265625,2877,38.0,0.0
1446,179.82421875,2877,38.0,0.0
1447,179.826171875,2877,38.0,0.0
1448,179.828125,2877,38.0,0.0
1449,179.830078125,2877,38.0,0.0
1450,179.83203125,2877,38.0,0.0
1451,179.833984375,2877,38.0,0.0
1452,179.8359375,2877,39.0,0.0
1453,179.837890625,2877,38.0,0.0
1454,179.83984375,2877,38.0,0.0
1455,179.841796875,2877,38.0,0.0
1456,179.84375,2877,38.0,0.0
1457,179.845703125,2877,38.0,0.0
1458,179.84765625,2877,38.0,0.0
1459,179.849609375,2877,38.0,0.0
1460,179.8515625,2877,38.0,0.0
1461,179.853515625,2877,38.0,0.0
1462,179.85546875,2877,38.0,0.0
1463,179.857421875,2877,38.0,0.0
1464,179.859375,2877,38.0,0.0
1465,179.861328125,2877,38.0,0.0
1466,179.86328125,2877,37.0,0.0
1467,179.865234375,2877,38.0,0.0
1468,179.8671875,2877,38.0,0.0
1469,179.869140625,2877,37.0,0.0
1470,179.87109375,2877,38.0,0.0
1471,179.873046875,2877,38.0,0.0
1472,179.875,2878,38.0,0.0
1473,179.876953125,2878,38.0,0.0
1474,179.87890625,2878,38.0,0.0
1475,179.880859375,2878,38.0,0.0
1476,179.8828125,2878,38.0,0.0
1477,179.884765625,2878,38.0,0.0
1478,179.88671875,2878,38.0,0.0
1479,179.888671875,2878,38.0,0.0
1480,179.890625,2878,38.0,33552.0
1481,179.892578125,2878,38.0,0.0
1482,179.89453125,2878,38.0,0.0
1483,179.896484375,2878,37.0,0.0
1484,179.8984375,2878,38.0,0.0
1485,179.900390625,2878,38.0,0.0
1486,179.90234375,2878,38.0,0.0
1487,179.904296875,2878,38.0,0.0
1488,179.90625,2878,38.0,0.0
1489,179.908203125,2878,38.0,0.0
1490,179.91015625,2878,38.0,0.0
1491,179.912109375,2878,38.0,0.0
1492,179.9140625,2878,38.0,0.0
1493,179.916015625,2878,38.0,0.0
1494,179.91796875,2878,38.0,0.0
1495,179.919921875,2878,38.0,0.0
1496,179.921875,2878,37.0,0.0
1497,179.923828125,2878,38.0,0.0
1498,179.92578125,2878,38.0,0.0
1499,179.927734375,2878,38.0,0.0
1500,179.9296875,2878,38.0,0.0
1501,179.931640625,2878,38.0,0.0
1502,179.93359375,2878,38.0,0.0
1503,179.935546875,2878,38.0,0.0
1504,179.9375,2879,38.0,0.0
1505,179.939453125,2879,38.0,0.0
1506,179.94140625,2879,38.0,0.0
1507,179.943359375,2879,38.0,0.0
1508,179.9453125,2879,38.0,0.0
1509,179.947265625,2879,38.0,0.0
1510,179.94921875,2879,38.0,0.0
1511,179.951171875,2879,38.0,0.0
1512,179.953125,2879,38.0,0.0
1513,179.955078125,2879,38.0,0.0
1514,179.95703125,2879,38.0,0.0
1515,179.958984375,2879,38.0,0.0
1516,179.9609375,2879,38.0,0.0
1517,179.962890625,2879,38.0,0.0
1518,179.96484375,2879,38.0,0.0
1519,179.966796875,2879,39.0,0.0
1520,179.96875,2879,38.0,0.0
1521,179.970703125,2879,38.0,0.0
1522,179.97265625,2879,38.0,0.0
1523,179.974609375,2879,38.0,0.0
1524,179.9765625,2879,38.0,0.0
1525,179.978515625,2879,38.0,0.0
1526,179.98046875,2879,38.0,0.0
1527,179.982421875,2879,38.0,0.0
1528,179.984375,2879,38.0,0.0
1529,179.986328125,2879,38.0,0.0
1530,179.98828125,2879,38.0,0.0
1531,179.990234375,2879,38.0,0.0
1532,179.9921875,2879,38.0,0.0
1533,179.994140625,2879,38.0,0.0
1534,179.99609375,2879,38.0,0.0
1535,179.998046875,2879,38.0,0.0
1536,180.0,2880,38.0,0.0
1537,180.001953125,2880,38.0,0.0
1538,180.00390625,2880,38.0,0.0
1539,180.005859375,2880,38.0,0.0
1540,180.0078125,2880,38.0,0.0
1541,180.009765625,2880,38.0,0.0
1542,180.01171875,2880,38.0,0.0
1543,180.013671875,2880,38.0,0.0
1544,180.015625,2880,38.0,0.0
1545,180.017578125,2880,38.0,0.0
1546,180.01953125,2880,38.0,0.0
1547,180.021484375,2880,38.0,0.0
1548,180.0234375,2880,39.0,0.0
1549,180.025390625,2880,39.0,0.0
1550,180.02734375,2880,38.0,0.0
1551,180.029296875,2880,38.0,0.0
1552,180.03125,2880,38.0,0.0
1553,180.033203125,2880,38.0,0.0
1554,180.03515625,2880,38.0,0.0
1555,180.037109375,2880,38.0,0.0
1556,180.0390625,2880,39.0,0.0
1557,180.041015625,2880,38.0,0.0
1558,180.04296875,2880,39.0,0.0
1559,180.044921875,2880,39.0,0.0
1560,180.046875,2880,38.0,0.0
1561,180.048828125,2880,38.0,0.0
1562,180.05078125,2880,39.0,0.0
1563,180.052734375,2880,39.0,0.0
1564,180.0546875,2880,39.0,0.0
1565,180.056640625,2880,38.0,0.0
1566,180.05859375,2880,39.0,0.0
1567,180.060546875,2880,38.0,0.0
1568,180.0625,2881,38.0,0.0
1569,180.064453125,2881,38.0,0.0
1570,180.06640625,2881,38.0,0.0
1571,180.068359375,2881,38.0,0.0
1572,180.0703125,2881,38.0,0.0
1573,180.072265625,2881,38.0,0.0
1574,180.07421875,2881,38.0,0.0
1575,180.076171875,2881,38.0,0.0
1576,180.078125,2881,38.0,0.0
1577,180.080078125,2881,38.0,0.0
1578,180.08203125,2881,38.0,0.0
1579,180.083984375,2881,38.0,0.0
1580,180.0859375,2881,38.0,0.0
1581,180.087890625,2881,38.0,0.0
1582,180.08984375,2881,38.0,0.0
1583,180.091796875,2881,39.0,0.0
1584,180.09375,2881,38.0,0.0
1585,180.095703125,2881,38.0,0.0
1586,180.09765625,2881,38.0,0.0
1587,180.099609375,2881,38.0,0.0
1588,180.1015625,2881,38.0,0.0
1589,180.103515625,2881,39.0,0.0
1590,180.10546875,2881,38.0,0.0
1591,180.107421875,2881,38.0,0.0
1592,180.109375,2881,38.0,0.0
1593,180.111328125,2881,38.0,0.0
1594,180.11328125,2881,38.0,0.0
1595,180.115234375,2881,38.0,0.0
1596,180.1171875,2881,38.0,0.0
1597,180.119140625,2881,39.0,0.0
1598,180.12109375,2881,38.0,0.0
1599,180.123046875,2881,39.0,0.0
1600,180.125,2882,38.0,0.0
1601,180.126953125,2882,38.0,0.0
1602,180.12890625,2882,38.0,0.0
1603,180.130859375,2882,39.0,0.0
1604,180.1328125,2882,39.0,0.0
1605,180.134765625,2882,39.0,0.0
1606,180.13671875,2882,38.0,0.0
1607,180.138671875,2882,39.0,0.0
1608,180.140625,2882,38.0,0.0
1609,180.142578125,2882,38.0,0.0
1610,180.14453125,2882,38.0,0.0
1611,180.146484375,2882,39.0,0.0
1612,180.1484375,2882,38.0,0.0
1613,180.150390625,2882,39.0,0.0
1614,180.15234375,2882,38.0,0.0
1615,180.154296875,2882,39.0,0.0
1616,180.15625,2882,39.0,0.0
1617,180.158203125,2882,38.0,0.0
1618,180.16015625,2882,38.0,0.0
1619,180.162109375,2882,39.0,0.0
1620,180.1640625,2882,39.0,0.0
1621,180.166015625,2882,39.0,0.0
1622,180.16796875,2882,39.0,0.0
1623,180.169921875,2882,39.0,0.0
1624,180.171875,2882,39.0,0.0
1625,180.173828125,2882,38.0,0.0
1626,180.17578125,2882,39.0,0.0
1627,180.177734375,2882,39.0,0.0
1628,180.1796875,2882,38.0,0.0
1629,180.181640625,2882,38.0,0.0
1630,180.18359375,2882,39.0,0.0
1631,180.185546875,2882,39.0,0.0
1632,180.1875,2883,39.0,0.0
1633,180.189453125,2883,39.0,0.0
1634,180.19140625,2883,39.0,0.0
1635,180.193359375,2883,39.0,0.0
1636,180.1953125,2883,39.0,0.0
1637,180.197265625,2883,39.0,0.0
1638,180.19921875,2883,39.0,0.0
1639,180.201171875,2883,39.0,0.0
1640,180.203125,2883,39.0,0.0
1641,180.205078125,2883,39.0,0.0
1642,180.20703125,2883,39.0,0.0
1643,180.208984375,2883,39.0,0.0
1644,180.2109375,2883,39.0,0.0
1645,180.212890625,2883,39.0,0.0
1646,180.21484375,2883,39.0,0.0
1647,180.216796875,2883,39.0,0.0
1648,180.21875,2883,39.0,0.0
1649,180.220703125,2883,39.0,0.0
1650,180.22265625,2883,39.0,0.0
1651,180.224609375,2883,39.0,0.0
1652,180.2265625,2883,39.0,0.0
1653,180.228515625,2883,39.0,0.0
1654,180.23046875,2883,39.0,0.0
1655,180.232421875,2883,39.0,0.0
1656,180.234375,2883,39.0,0.0
1657,180.236328125,2883,38.0,0.0
1658,180.23828125,2883,39.0,0.0
1659,180.240234375,2883,39.0,0.0
1660,180.2421875,2883,39.0,0.0
1661,180.244140625,2883,39.0,0.0
1662,180.24609375,2883,18.0,0.0
1663,180.248046875,2883,18.0,0.0
1664,180.25,2884,18.0,0.0
1665,180.251953125,2884,18.0,0.0
1666,180.25390625,2884,18.0,0.0
1667,180.255859375,2884,18.0,0.0
1668,180.2578125,2884,18.0,0.0
1669,180.259765625,2884,18.0,0.0
1670,180.26171875,2884,18.0,0.0
1671,180.263671875,2884,18.0,33553.0
1672,180.265625,2884,18.0,33554.0
1673,180.267578125,2884,18.0,0.0
1674,180.26953125,2884,18.0,0.0
1675,180.271484375,2884,18.0,0.0
1676,180.2734375,2884,18.0,0.0
1677,180.275390625,2884,18.0,0.0
1678,180.27734375,2884,18.0,0.0
1679,180.279296875,2884,18.0,0.0
1680,180.28125,2884,18.0,0.0
1681,180.283203125,2884,18.0,0.0
1682,180.28515625,2884,18.0,0.0
1683,180.287109375,2884,18.0,0.0
1684,180.2890625,2884,18.0,0.0
1685,180.291015625,2884,18.0,0.0
1686,180.29296875,2884,18.0,0.0
1687,180.294921875,2884,18.0,0.0
1688,180.296875,2884,18.0,0.0
1689,180.298828125,2884,-5.0,0.0
1690,180.30078125,2884,233.0,0.0
1691,180.302734375,2884,460.0,0.0
1692,180.3046875,2884,473.0,0.0
1693,180.306640625,2884,310.0,0.0
1694,180.30859375,2884,65.0,0.0
1695,180.310546875,2884,-132.0,0.0
1696,180.3125,2885,-146.0,0.0
1697,180.314453125,2885,-27.0,0.0
1698,180.31640625,2885,40.0,0.0
1699,180.318359375,2885,48.0,0.0
1700,180.3203125,2885,11.0,0.0
1701,180.322265625,2885,-45.0,0.0
1702,180.32421875,2885,-114.0,0.0
1703,180.326171875,2885,-217.0,0.0
1704,180.328125,2885,-321.0,0.0
1705,180.330078125,2885,-364.0,0.0
1706,180.33203125,2885,-309.0,0.0
1707,180.333984375,2885,-182.0,0.0
1708,180.3359375,2885,-42.0,0.0
1709,180.337890625,2885,36.0,0.0
1710,180.33984375,2885,68.0,0.0
1711,180.341796875,2885,89.0,0.0
1712,180.34375,2885,115.0,0.0
1713,180.345703125,2885,148.0,0.0
1714,180.34765625,2885,219.0,0.0
1715,180.349609375,2885,340.0,0.0
1716,180.3515625,2885,438.0,0.0
1717,180.353515625,2885,506.0,0.0
1718,180.35546875,2885,580.0,0.0
1719,180.357421875,2885,589.0,0.0
1720,180.359375,2885,572.0,0.0
1721,180.361328125,2885,602.0,0.0
1722,180.36328125,2885,608.0,0.0
1723,180.365234375,2885,593.0,0.0
1724,180.3671875,2885,548.0,0.0
1725,180.369140625,2885,498.0,0.0
1726,180.37109375,2885,562.0,0.0
1727,180.373046875,2885,658.0,0.0
1728,180.375,2886,692.0,0.0
1729,180.376953125,2886,678.0,0.0
1730,180.37890625,2886,612.0,0.0
1731,180.380859375,2886,579.0,0.0
1732,180.3828125,2886,614.0,0.0
1733,180.384765625,2886,684.0,0.0
1734,180.38671875,2886,708.0,0.0
1735,180.388671875,2886,647.0,0.0
1736,180.390625,2886,593.0,0.0
1737,180.392578125,2886,565.0,0.0
1738,180.39453125,2886,563.0,0.0
1739,180.396484375,2886,611.0,0.0
1740,180.3984375,2886,663.0,0.0
1741,180.400390625,2886,666.0,0.0
1742,180.40234375,2886,662.0,0.0
1743,180.404296875,2886,713.0,0.0
1744,180.40625,2886,747.0,0.0
1745,180.408203125,2886,701.0,0.0
1746,180.41015625,2886,633.0,0.0
1747,180.412109375,2886,640.0,0.0
1748,180.4140625,2886,697.0,0.0
1749,180.416015625,2886,760.0,0.0
1750,180.41796875,2886,777.0,0.0
1751,180.419921875,2886,744.0,0.0
1752,180.421875,2886,746.0,0.0
1753,180.423828125,2886,813.0,0.0
1754,180.42578125,2886,906.0,0.0
1755,180.427734375,2886,993.0,0.0
1756,180.4296875,2886,1027.0,0.0
1757,180.431640625,2886,1018.0,0.0
1758,180.43359375,2886,998.0,0.0
1759,180.435546875,2886,982.0,0.0
1760,180.4375,2887,965.0,0.0
1761,180.439453125,2887,960.0,0.0
1762,180.44140625,2887,956.0,0.0
1763,180.443359375,2887,965.0,0.0
1764,180.4453125,2887,968.0,0.0
1765,180.447265625,2887,971.0,0.0
1766,180.44921875,2887,971.0,0.0
1767,180.451171875,2887,977.0,0.0
1768,180.453125,2887,977.0,0.0
1769,180.455078125,2887,981.0,0.0
1770,180.45703125,2887,981.0,0.0
1771,180.458984375,2887,944.0,0.0
1772,180.4609375,2887,949.0,0.0
1773,180.462890625,2887,961.0,0.0
1774,180.46484375,2887,903.0,0.0
1775,180.466796875,2887,833.0,0.0
1776,180.46875,2887,809.0,0.0
1777,180.470703125,2887,827.0,0.0
1778,180.47265625,2887,821.0,0.0
1779,180.474609375,2887,743.0,0.0
1780,180.4765625,2887,682.0,0.0
1781,180.478515625,2887,710.0,0.0
1782,180.48046875,2887,736.0,0.0
1783,180.482421875,2887,722.0,0.0
1784,180.484375,2887,727.0,0.0
1785,180.486328125,2887,727.0,0.0
1786,180.48828125,2887,690.0,0.0
1787,180.490234375,2887,659.0,0.0
1788,180.4921875,2887,651.0,0.0
1789,180.494140625,2887,647.0,0.0
1790,180.49609375,2887,601.0,0.0
1791,180.498046875,2887,549.0,0.0
1792,180.5,2888,554.0,0.0
1793,180.501953125,2888,563.0,0.0
1794,180.50390625,2888,522.0,0.0
1795,180.505859375,2888,449.0,0.0
1796,180.5078125,2888,409.0,0.0
1797,180.509765625,2888,422.0,0.0
1798,180.51171875,2888,429.0,0.0
1799,180.513671875,2888,418.0,0.0
1800,180.515625,2888,387.0,0.0
1801,180.517578125,2888,373.0,0.0
1802,180.51953125,2888,370.0,0.0
1803,180.521484375,2888,361.0,0.0
1804,180.5234375,2888,357.0,0.0
1805,180.525390625,2888,358.0,0.0
1806,180.52734375,2888,348.0,0.0
1807,180.529296875,2888,340.0,0.0
1808,180.53125,2888,336.0,0.0
1809,180.533203125,2888,308.0,0.0
1810,180.53515625,2888,273.0,0.0
1811,180.537109375,2888,257.0,0.0
1812,180.5390625,2888,267.0,0.0
1813,180.541015625,2888,258.0,0.0
1814,180.54296875,2888,245.0,0.0
1815,180.544921875,2888,248.0,0.0
1816,180.546875,2888,249.0,0.0
1817,180.548828125,2888,241.0,0.0
1818,180.55078125,2888,243.0,0.0
1819,180.552734375,2888,249.0,0.0
1820,180.5546875,2888,248.0,0.0
1821,180.556640625,2888,237.0,0.0
1822,180.55859375,2888,243.0,0.0
1823,180.560546875,2888,258.0,0.0
1824,180.5625,2889,256.0,0.0
1825,180.564453125,2889,230.0,0.0
1826,180.56640625,2889,201.0,0.0
1827,180.568359375,2889,204.0,0.0
1828,180.5703125,2889,236.0,0.0
1829,180.572265625,2889,253.0,0.0
1830,180.57421875,2889,252.0,0.0
1831,180.576171875,2889,246.0,0.0
1832,180.578125,2889,230.0,0.0
1833,180.580078125,2889,226.0,0.0
1834,180.58203125,2889,242.0,0.0
1835,180.583984375,2889,242.0,0.0
1836,180.5859375,2889,220.0,0.0
1837,180.587890625,2889,209.0,0.0
1838,180.58984375,2889,214.0,0.0
1839,180.591796875,2889,225.0,0.0
1840,180.59375,2889,210.0,0.0
1841,180.595703125,2889,181.0,0.0
1842,180.59765625,2889,153.0,0.0
1843,180.599609375,2889,118.0,0.0
1844,180.6015625,2889,75.0,0.0
1845,180.603515625,2889,23.0,0.0
1846,180.60546875,2889,-67.0,0.0
1847,180.607421875,2889,-167.0,0.0
1848,180.609375,2889,-226.0,0.0
1849,180.611328125,2889,-247.0,0.0
1850,180.61328125,2889,-283.0,0.0
1851,180.615234375,2889,-314.0,0.0
1852,180.6171875,2889,-332.0,0.0
1853,180.619140625,2889,-340.0,0.0
1854,180.62109375,2889,-325.0,0.0
1855,180.623046875,2889,-276.0,0.0
1856,180.625,2890,-158.0,0.0
1857,180.626953125,2890,-74.0,0.0
1858,180.62890625,2890,-54.0,0.0
1859,180.630859375,2890,-38.0,0.0
1860,180.6328125,2890,-76.0,0.0
1861,180.634765625,2890,-125.0,0.0
1862,180.63671875,2890,-89.0,0.0
1863,180.638671875,2890,-39.0,0.0
1864,180.640625,2890,-9.0,0.0
1865,180.642578125,2890,27.0,0.0
1866,180.64453125,2890,70.0,0.0
1867,180.646484375,2890,103.0,0.0
1868,180.6484375,2890,53.0,0.0
1869,180.650390625,2890,5.0,0.0
1870,180.65234375,2890,67.0,0.0
1871,180.654296875,2890,140.0,0.0
1872,180.65625,2890,149.0,0.0
1873,180.658203125,2890,115.0,0.0
1874,180.66015625,2890,87.0,0.0
1875,180.662109375,2890,83.0,0.0
1876,180.6640625,2890,82.0,0.0
1877,180.666015625,2890,89.0,0.0
1878,180.66796875,2890,104.0,0.0
1879,180.669921875,2890,104.0,0.0
1880,180.671875,2890,92.0,0.0
1881,180.673828125,2890,74.0,0.0
1882,180.67578125,2890,60.0,0.0
1883,180.677734375,2890,65.0,0.0
1884,180.6796875,2890,48.0,0.0
1885,180.681640625,2890,40.0,0.0
1886,180.68359375,2890,96.0,0.0
1887,180.685546875,2890,167.0,0.0
1888,180.6875,2891,192.0,0.0
1889,180.689453125,2891,157.0,0.0
1890,180.69140625,2891,136.0,0.0
1891,180.693359375,2891,155.0,0.0
1892,180.6953125,2891,182.0,0.0
1893,180.697265625,2891,183.0,0.0
1894,180.69921875,2891,176.0,0.0
1895,180.701171875,2891,172.0,0.0
1896,180.703125,2891,169.0,0.0
1897,180.705078125,2891,176.0,0.0
1898,180.70703125,2891,188.0,0.0
1899,180.708984375,2891,204.0,0.0
1900,180.7109375,2891,221.0,0.0
1901,180.712890625,2891,220.0,0.0
1902,180.71484375,2891,201.0,0.0
1903,180.716796875,2891,199.0,0.0
1904,180.71875,2891,202.0,0.0
1905,180.720703125,2891,197.0,0.0
1906,180.72265625,2891,195.0,0.0
1907,180.724609375,2891,178.0,0.0
1908,180.7265625,2891,155.0,0.0
1909,180.728515625,2891,153.0,0.0
1910,180.73046875,2891,163.0,0.0
1911,180.732421875,2891,168.0,0.0
1912,180.734375,2891,152.0,0.0
1913,180.736328125,2891,132.0,0.0
1914,180.73828125,2891,122.0,0.0
1915,180.740234375,2891,130.0,0.0
1916,180.7421875,2891,149.0,0.0
1917,180.744140625,2891,154.0,0.0
1918,180.74609375,2891,144.0,0.0
1919,180.748046875,2891,134.0,0.0
1920,180.75,2892,125.0,0.0
1921,180.751953125,2892,136.0,0.0
1922,180.75390625,2892,156.0,0.0
1923,180.755859375,2892,166.0,0.0
1924,180.7578125,2892,160.0,0.0
1925,180.759765625,2892,147.0,0.0
1926,180.76171875,2892,136.0,0.0
1927,180.763671875,2892,139.0,0.0
1928,180.765625,2892,147.0,0.0
1929,180.767578125,2892,141.0,0.0
1930,180.76953125,2892,148.0,0.0
1931,180.771484375,2892,161.0,0.0
1932,180.7734375,2892,162.0,0.0
1933,180.775390625,2892,154.0,0.0
1934,180.77734375,2892,146.0,0.0
1935,180.779296875,2892,153.0,0.0
1936,180.78125,2892,173.0,0.0
1937,180.783203125,2892,173.0,0.0
1938,180.78515625,2892,161.0,0.0
1939,180.787109375,2892,144.0,0.0
1940,180.7890625,2892,132.0,0.0
1941,180.791015625,2892,134.0,0.0
1942,180.79296875,2892,128.0,0.0
1943,180.794921875,2892,113.0,0.0
1944,180.796875,2892,119.0,0.0
1945,180.798828125,2892,141.0,0.0
1946,180.80078125,2892,166.0,0.0
1947,180.802734375,2892,170.0,0.0
1948,180.8046875,2892,138.0,0.0
1949,180.806640625,2892,128.0,0.0
1950,180.80859375,2892,140.0,0.0
1951,180.810546875,2892,129.0,0.0
1952,180.8125,2893,105.0,0.0
1953,180.814453125,2893,86.0,0.0
1954,180.81640625,2893,75.0,0.0
1955,180.818359375,2893,71.0,0.0
1956,180.8203125,2893,74.0,0.0
1957,180.822265625,2893,81.0,0.0
1958,180.82421875,2893,84.0,0.0
1959,180.826171875,2893,93.0,0.0
1960,180.828125,2893,101.0,0.0
1961,180.830078125,2893,87.0,0.0
1962,180.83203125,2893,68.0,0.0
1963,180.833984375,2893,58.0,0.0
1964,180.8359375,2893,66.0,0.0
1965,180.837890625,2893,73.0,0.0
1966,180.83984375,2893,70.0,0.0
1967,180.841796875,2893,68.0,0.0
1968,180.84375,2893,74.0,0.0
1969,180.845703125,2893,74.0,0.0
1970,180.84765625,2893,72.0,0.0
1971,180.849609375,2893,75.0,0.0
1972,180.8515625,2893,82.0,0.0
1973,180.853515625,2893,82.0,0.0
1974,180.85546875,2893,80.0,0.0
1975,180.857421875,2893,83.0,0.0
1976,180.859375,2893,85.0,0.0
1977,180.861328125,2893,87.0,0.0
1978,180.86328125,2893,90.0,0.0
1979,180.865234375,2893,92.0,0.0
1980,180.8671875,2893,90.0,0.0
1981,180.869140625,2893,80.0,0.0
1982,180.87109375,2893,57.0,0.0
1983,180.873046875,2893,38.0,0.0
1984,180.875,2894,32.0,0.0
1985,180.876953125,2894,37.0,0.0
1986,180.87890625,2894,6.0,0.0
1987,180.880859375,2894,-29.0,0.0
1988,180.8828125,2894,-45.0,0.0
1989,180.884765625,2894,-37.0,0.0
1990,180.88671875,2894,-28.0,0.0
1991,180.888671875,2894,-36.0,0.0
1992,180.890625,2894,-56.0,0.0
1993,180.892578125,2894,-72.0,0.0
1994,180.89453125,2894,-59.0,0.0
1995,180.896484375,2894,-39.0,0.0
1996,180.8984375,2894,-45.0,0.0
1997,180.900390625,2894,-24.0,0.0
1998,180.90234375,2894,4.0,0.0
1999,180.904296875,2894,1.0,0.0
2000,180.90625,2894,13.0,0.0
2001,180.908203125,2894,33.0,0.0
2002,180.91015625,2894,32.0,0.0
2003,180.912109375,2894,13.0,0.0
2004,180.9140625,2894,26.0,0.0
2005,180.916015625,2894,59.0,0.0
2006,180.91796875,2894,68.0,0.0
2007,180.919921875,2894,55.0,0.0
2008,180.921875,2894,59.0,0.0
2009,180.923828125,2894,84.0,0.0
2010,180.92578125,2894,81.0,0.0
2011,180.927734375,2894,88.0,0.0
2012,180.9296875,2894,114.0,0.0
2013,180.931640625,2894,128.0,0.0
2014,180.93359375,2894,128.0,0.0
2015,180.935546875,2894,122.0,0.0
2016,180.9375,2895,135.0,0.0
2017,180.939453125,2895,134.0,0.0
2018,180.94140625,2895,145.0,0.0
2019,180.943359375,2895,154.0,0.0
2020,180.9453125,2895,151.0,0.0
2021,180.947265625,2895,140.0,0.0
2022,180.94921875,2895,132.0,0.0
2023,180.951171875,2895,122.0,0.0
2024,180.953125,2895,90.0,33552.0
2025,180.955078125,2895,81.0,0.0
2026,180.95703125,2895,72.0,0.0
2027,180.958984375,2895,68.0,0.0
2028,180.9609375,2895,64.0,0.0
2029,180.962890625,2895,53.0,0.0
2030,180.96484375,2895,27.0,0.0
2031,180.966796875,2895,-2.0,0.0
2032,180.96875,2895,7.0,0.0
2033,180.970703125,2895,26.0,0.0
2034,180.97265625,2895,11.0,0.0
2035,180.974609375,2895,2.0,0.0
2036,180.9765625,2895,8.0,0.0
2037,180.978515625,2895,-8.0,0.0
2038,180.98046875,2895,-36.0,0.0
2039,180.982421875,2895,-25.0,0.0
2040,180.984375,2895,-10.0,0.0
2041,180.986328125,2895,-26.0,0.0
2042,180.98828125,2895,-58.0,0.0
2043,180.990234375,2895,-73.0,0.0
2044,180.9921875,2895,-76.0,0.0
2045,180.994140625,2895,-84.0,0.0
2046,180.99609375,2895,-81.0,0.0
2047,180.998046875,2895,-100.0,0.0
2048,181.0,2896,-169.0,0.0
2049,181.001953125,2896,-235.0,0.0
2050,181.00390625,2896,-228.0,0.0
2051,181.005859375,2896,-202.0,0.0
2052,181.0078125,2896,-229.0,0.0
2053,181.009765625,2896,-315.0,0.0
2054,181.01171875,2896,-411.0,0.0
2055,181.013671875,2896,-403.0,0.0
2056,181.015625,2896,-347.0,0.0
2057,181.017578125,2896,-365.0,0.0
2058,181.01953125,2896,-440.0,0.0
2059,181.021484375,2896,-487.0,0.0
2060,181.0234375,2896,-557.0,0.0
2061,181.025390625,2896,-664.0,0.0
2062,181.02734375,2896,-681.0,0.0
2063,181.029296875,2896,-657.0,0.0
2064,181.03125,2896,-665.0,0.0
2065,181.033203125,2896,-678.0,0.0
2066,181.03515625,2896,-741.0,0.0
2067,181.037109375,2896,-805.0,0.0
2068,181.0390625,2896,-794.0,0.0
2069,181.041015625,2896,-818.0,0.0
2070,181.04296875,2896,-819.0,0.0
2071,181.044921875,2896,-823.0,0.0
2072,181.046875,2896,-889.0,0.0
2073,181.048828125,2896,-957.0,0.0
2074,181.05078125,2896,-914.0,0.0
2075,181.052734375,2896,-814.0,0.0
2076,181.0546875,2896,-792.0,0.0
2077,181.056640625,2896,-813.0,0.0
2078,181.05859375,2896,-823.0,0.0
2079,181.060546875,2896,-843.0,0.0
2080,181.0625,2897,-827.0,0.0
2081,181.064453125,2897,-811.0,0.0
2082,181.06640625,2897,-845.0,0.0
2083,181.068359375,2897,-842.0,0.0
2084,181.0703125,2897,-805.0,0.0
2085,181.072265625,2897,-824.0,0.0
2086,181.07421875,2897,-812.0,0.0
2087,181.076171875,2897,-745.0,0.0
2088,181.078125,2897,-693.0,0.0
2089,181.080078125,2897,-694.0,0.0
2090,181.08203125,2897,-705.0,0.0
2091,181.083984375,2897,-721.0,0.0
2092,181.0859375,2897,-652.0,0.0
2093,181.087890625,2897,-580.0,0.0
2094,181.08984375,2897,-658.0,0.0
2095,181.091796875,2897,-769.0,0.0
2096,181.09375,2897,-749.0,0.0
2097,181.095703125,2897,-669.0,0.0
2098,181.09765625,2897,-638.0,0.0
2099,181.099609375,2897,-680.0,0.0
2100,181.1015625,2897,-789.0,0.0
2101,181.103515625,2897,-822.0,0.0
2102,181.10546875,2897,-794.0,0.0
2103,181.107421875,2897,-773.0,0.0
2104,181.109375,2897,-746.0,0.0
2105,181.111328125,2897,-772.0,0.0
2106,181.11328125,2897,-798.0,0.0
2107,181.115234375,2897,-824.0,0.0
2108,181.1171875,2897,-845.0,0.0
2109,181.119140625,2897,-785.0,0.0
2110,181.12109375,2897,-659.0,0.0
2111,181.123046875,2897,-612.0,0.0
2112,181.125,2898,-685.0,0.0
2113,181.126953125,2898,-731.0,0.0
2114,181.12890625,2898,-691.0,0.0
2115,181.130859375,2898,-599.0,0.0
2116,181.1328125,2898,-599.0,0.0
2117,181.134765625,2898,-540.0,0.0
2118,181.13671875,2898,-478.0,0.0
2119,181.138671875,2898,-444.0,0.0
2120,181.140625,2898,-385.0,0.0
2121,181.142578125,2898,-357.0,0.0
2122,181.14453125,2898,-302.0,0.0
2123,181.146484375,2898,-211.0,0.0
2124,181.1484375,2898,-113.0,0.0
2125,181.150390625,2898,-78.0,0.0
2126,181.15234375,2898,-35.0,0.0
2127,181.154296875,2898,-12.0,0.0
2128,181.15625,2898,3.0,0.0
2129,181.158203125,2898,35.0,0.0
2130,181.16015625,2898,76.0,0.0
2131,181.162109375,2898,116.0,0.0
2132,181.1640625,2898,104.0,0.0
2133,181.166015625,2898,99.0,0.0
2134,181.16796875,2898,155.0,0.0
2135,181.169921875,2898,217.0,0.0
2136,181.171875,2898,140.0,0.0
2137,181.173828125,2898,52.0,0.0
2138,181.17578125,2898,68.0,0.0
2139,181.177734375,2898,162.0,0.0
2140,181.1796875,2898,281.0,0.0
2141,181.181640625,2898,340.0,0.0
2142,181.18359375,2898,300.0,0.0
2143,181.185546875,2898,279.0,0.0
2144,181.1875,2899,300.0,0.0
2145,181.189453125,2899,342.0,0.0
2146,181.19140625,2899,368.0,0.0
2147,181.193359375,2899,410.0,0.0
2148,181.1953125,2899,452.0,0.0
2149,181.197265625,2899,439.0,0.0
2150,181.19921875,2899,433.0,0.0
2151,181.201171875,2899,493.0,33552.0
2152,181.203125,2899,556.0,0.0
2153,181.205078125,2899,596.0,0.0
2154,181.20703125,2899,567.0,0.0
2155,181.208984375,2899,518.0,0.0
2156,181.2109375,2899,489.0,0.0
2157,181.212890625,2899,548.0,0.0
2158,181.21484375,2899,645.0,0.0
2159,181.216796875,2899,679.0,0.0
2160,181.21875,2899,642.0,0.0
2161,181.220703125,2899,634.0,0.0
2162,181.22265625,2899,644.0,0.0
2163,181.224609375,2899,662.0,0.0
2164,181.2265625,2899,673.0,0.0
2165,181.228515625,2899,679.0,0.0
2166,181.23046875,2899,688.0,0.0
2167,181.232421875,2899,645.0,0.0
2168,181.234375,2899,617.0,0.0
2169,181.236328125,2899,601.0,0.0
2170,181.23828125,2899,550.0,0.0
2171,181.240234375,2899,538.0,0.0
2172,181.2421875,2899,518.0,0.0
2173,181.244140625,2899,498.0,0.0
2174,181.24609375,2899,491.0,0.0
2175,181.248046875,2899,456.0,0.0
2176,181.25,2900,416.0,0.0
2177,181.251953125,2900,419.0,0.0
2178,181.25390625,2900,454.0,0.0
2179,181.255859375,2900,504.0,0.0
2180,181.2578125,2900,534.0,0.0
2181,181.259765625,2900,520.0,0.0
2182,181.26171875,2900,540.0,0.0
2183,181.263671875,2900,565.0,0.0
2184,181.265625,2900,599.0,0.0
2185,181.267578125,2900,609.0,0.0
2186,181.26953125,2900,682.0,0.0
2187,181.271484375,2900,761.0,0.0
2188,181.2734375,2900,780.0,0.0
2189,181.275390625,2900,731.0,0.0
2190,181.27734375,2900,712.0,0.0
2191,181.279296875,2900,765.0,0.0
2192,181.28125,2900,777.0,0.0
2193,181.283203125,2900,713.0,0.0
2194,181.28515625,2900,674.0,0.0
2195,181.287109375,2900,682.0,0.0
2196,181.2890625,2900,683.0,0.0
2197,181.291015625,2900,680.0,0.0
2198,181.29296875,2900,680.0,0.0
2199,181.294921875,2900,661.0,0.0
2200,181.296875,2900,652.0,0.0
2201,181.298828125,2900,663.0,0.0
2202,181.30078125,2900,657.0,0.0
2203,181.302734375,2900,621.0,0.0
2204,181.3046875,2900,598.0,0.0
2205,181.306640625,2900,582.0,0.0
2206,181.30859375,2900,557.0,0.0
2207,181.310546875,2900,530.0,0.0
2208,181.3125,2901,514.0,0.0
2209,181.314453125,2901,471.0,0.0
2210,181.31640625,2901,473.0,0.0
2211,181.318359375,2901,492.0,0.0
2212,181.3203125,2901,472.0,0.0
2213,181.322265625,2901,465.0,0.0
2214,181.32421875,2901,465.0,0.0
2215,181.326171875,2901,450.0,0.0
2216,181.328125,2901,438.0,0.0
2217,181.330078125,2901,440.0,0.0
2218,181.33203125,2901,420.0,0.0
2219,181.333984375,2901,393.0,0.0
2220,181.3359375,2901,386.0,0.0
2221,181.337890625,2901,378.0,0.0
2222,181.33984375,2901,375.0,0.0
2223,181.341796875,2901,377.0,0.0
2224,181.34375,2901,388.0,0.0
2225,181.345703125,2901,395.0,0.0
2226,181.34765625,2901,390.0,0.0
2227,181.349609375,2901,381.0,0.0
2228,181.3515625,2901,374.0,0.0
2229,181.353515625,2901,369.0,0.0
2230,181.35546875,2901,360.0,0.0
2231,181.357421875,2901,332.0,0.0
2232,181.359375,2901,307.0,0.0
2233,181.361328125,2901,311.0,0.0
2234,181.36328125,2901,322.0,0.0
2235,181.365234375,2901,323.0,0.0
2236,181.3671875,2901,307.0,0.0
2237,181.369140625,2901,289.0,0.0
2238,181.37109375,2901,280.0,0.0
2239,181.373046875,2901,309.0,0.0
2240,181.375,2902,321.0,0.0
2241,181.376953125,2902,306.0,0.0
2242,181.37890625,2902,279.0,0.0
2243,181.380859375,2902,263.0,0.0
2244,181.3828125,2902,263.0,0.0
2245,181.384765625,2902,273.0,0.0
2246,181.38671875,2902,275.0,0.0
2247,181.388671875,2902,259.0,0.0
2248,181.390625,2902,242.0,0.0
2249,181.392578125,2902,235.0,0.0
2250,181.39453125,2902,244.0,0.0
2251,181.396484375,2902,256.0,0.0
2252,181.3984375,2902,249.0,0.0
2253,181.400390625,2902,237.0,0.0
2254,181.40234375,2902,241.0,0.0
2255,181.404296875,2902,237.0,0.0
2256,181.40625,2902,233.0,0.0
2257,181.408203125,2902,235.0,0.0
2258,181.41015625,2902,234.0,0.0
2259,181.412109375,2902,217.0,0.0
2260,181.4140625,2902,193.0,0.0
2261,181.416015625,2902,186.0,0.0
2262,181.41796875,2902,193.0,0.0
2263,181.419921875,2902,204.0,0.0
2264,181.421875,2902,218.0,0.0
2265,181.423828125,2902,212.0,0.0
2266,181.42578125,2902,196.0,0.0
2267,181.427734375,2902,189.0,0.0
2268,181.4296875,2902,196.0,0.0
2269,181.431640625,2902,189.0,0.0
2270,181.43359375,2902,183.0,0.0
2271,181.435546875,2902,179.0,0.0
2272,181.4375,2903,180.0,0.0
2273,181.439453125,2903,172.0,0.0
2274,181.44140625,2903,168.0,0.0
2275,181.443359375,2903,168.0,0.0
2276,181.4453125,2903,167.0,0.0
2277,181.447265625,2903,173.0,0.0
2278,181.44921875,2903,177.0,0.0
2279,181.451171875,2903,171.0,0.0
2280,181.453125,2903,167.0,0.0
2281,181.455078125,2903,164.0,0.0
2282,181.45703125,2903,149.0,0.0
2283,181.458984375,2903,135.0,0.0
2284,181.4609375,2903,135.0,0.0
2285,181.462890625,2903,138.0,0.0
2286,181.46484375,2903,134.0,0.0
2287,181.466796875,2903,133.0,0.0
2288,181.46875,2903,133.0,0.0
2289,181.470703125,2903,129.0,0.0
2290,181.47265625,2903,122.0,0.0
2291,181.474609375,2903,123.0,0.0
2292,181.4765625,2903,122.0,0.0
2293,181.478515625,2903,117.0,0.0
2294,181.48046875,2903,106.0,0.0
2295,181.482421875,2903,101.0,0.0
2296,181.484375,2903,100.0,0.0
2297,181.486328125,2903,92.0,0.0
2298,181.48828125,2903,82.0,0.0
2299,181.490234375,2903,76.0,0.0
2300,181.4921875,2903,75.0,0.0
2301,181.494140625,2903,66.0,0.0
2302,181.49609375,2903,56.0,0.0
2303,181.498046875,2903,55.0,0.0
2304,181.5,2904,55.0,0.0
2305,181.501953125,2904,52.0,0.0
2306,181.50390625,2904,37.0,0.0
2307,181.505859375,2904,24.0,0.0
2308,181.5078125,2904,29.0,0.0
2309,181.509765625,2904,48.0,0.0
2310,181.51171875,2904,57.0,0.0
2311,181.513671875,2904,59.0,0.0
2312,181.515625,2904,73.0,0.0
2313,181.517578125,2904,84.0,0.0
2314,181.51953125,2904,87.0,0.0
2315,181.521484375,2904,88.0,0.0
2316,181.5234375,2904,91.0,0.0
2317,181.525390625,2904,103.0,0.0
2318,181.52734375,2904,114.0,0.0
2319,181.529296875,2904,108.0,0.0
2320,181.53125,2904,96.0,0.0
2321,181.533203125,2904,97.0,0.0
2322,181.53515625,2904,106.0,0.0
2323,181.537109375,2904,112.0,0.0
2324,181.5390625,2904,98.0,0.0
2325,181.541015625,2904,80.0,0.0
2326,181.54296875,2904,73.0,0.0
2327,181.544921875,2904,76.0,0.0
2328,181.546875,2904,76.0,0.0
2329,181.548828125,2904,73.0,0.0
2330,181.55078125,2904,75.0,0.0
2331,181.552734375,2904,80.0,0.0
2332,181.5546875,2904,72.0,0.0
2333,181.556640625,2904,76.0,0.0
2334,181.55859375,2904,87.0,0.0
2335,181.560546875,2904,97.0,0.0
2336,181.5625,2905,100.0,0.0
2337,181.564453125,2905,98.0,0.0
2338,181.56640625,2905,90.0,0.0
2339,181.568359375,2905,85.0,0.0
2340,181.5703125,2905,86.0,0.0
2341,181.572265625,2905,90.0,0.0
2342,181.57421875,2905,90.0,0.0
2343,181.576171875,2905,88.0,0.0
2344,181.578125,2905,84.0,0.0
2345,181.580078125,2905,81.0,0.0
2346,181.58203125,2905,82.0,0.0
2347,181.583984375,2905,82.0,0.0
2348,181.5859375,2905,83.0,0.0
2349,181.587890625,2905,82.0,0.0
2350,181.58984375,2905,77.0,0.0
2351,181.591796875,2905,75.0,0.0
2352,181.59375,2905,75.0,0.0
2353,181.595703125,2905,74.0,0.0
2354,181.59765625,2905,73.0,0.0
2355,181.599609375,2905,72.0,0.0
2356,181.6015625,2905,73.0,0.0
2357,181.603515625,2905,72.0,0.0
2358,181.60546875,2905,72.0,0.0
2359,181.607421875,2905,71.0,0.0
2360,181.609375,2905,69.0,0.0
2361,181.611328125,2905,67.0,0.0
2362,181.61328125,2905,67.0,0.0
2363,181.615234375,2905,71.0,0.0
2364,181.6171875,2905,72.0,0.0
2365,181.619140625,2905,69.0,0.0
2366,181.62109375,2905,66.0,0.0
2367,181.623046875,2905,65.0,0.0
2368,181.625,2906,67.0,0.0
2369,181.626953125,2906,66.0,0.0
2370,181.62890625,2906,65.0,0.0
2371,181.630859375,2906,64.0,0.0
2372,181.6328125,2906,64.0,0.0
2373,181.634765625,2906,61.0,0.0
2374,181.63671875,2906,60.0,0.0
2375,181.638671875,2906,60.0,0.0
2376,181.640625,2906,61.0,0.0
2377,181.642578125,2906,60.0,0.0
2378,181.64453125,2906,58.0,0.0
2379,181.646484375,2906,56.0,0.0
2380,181.6484375,2906,56.0,0.0
2381,181.650390625,2906,56.0,0.0
2382,181.65234375,2906,56.0,0.0
2383,181.654296875,2906,57.0,0.0
2384,181.65625,2906,58.0,0.0
2385,181.658203125,2906,58.0,0.0
2386,181.66015625,2906,56.0,0.0
2387,181.662109375,2906,55.0,0.0
2388,181.6640625,2906,55.0,0.0
2389,181.666015625,2906,54.0,0.0
2390,181.66796875,2906,53.0,0.0
2391,181.669921875,2906,52.0,0.0
2392,181.671875,2906,51.0,0.0
2393,181.673828125,2906,52.0,0.0
2394,181.67578125,2906,54.0,0.0
2395,181.677734375,2906,56.0,0.0
2396,181.6796875,2906,56.0,0.0
2397,181.681640625,2906,55.0,0.0
2398,181.68359375,2906,53.0,0.0
2399,181.685546875,2906,53.0,0.0
2400,181.6875,2907,53.0,0.0
2401,181.689453125,2907,52.0,0.0
2402,181.69140625,2907,51.0,0.0
2403,181.693359375,2907,50.0,0.0
2404,181.6953125,2907,49.0,0.0
2405,181.697265625,2907,50.0,0.0
2406,181.69921875,2907,50.0,0.0
2407,181.701171875,2907,50.0,0.0
2408,181.703125,2907,51.0,0.0
2409,181.705078125,2907,50.0,0.0
2410,181.70703125,2907,50.0,0.0
2411,181.708984375,2907,49.0,0.0
2412,181.7109375,2907,48.0,0.0
2413,181.712890625,2907,48.0,0.0
2414,181.71484375,2907,48.0,0.0
2415,181.716796875,2907,48.0,0.0
2416,181.71875,2907,44.0,0.0
2417,181.720703125,2907,45.0,0.0
2418,181.72265625,2907,45.0,0.0
2419,181.724609375,2907,45.0,0.0
2420,181.7265625,2907,44.0,0.0
2421,181.728515625,2907,44.0,0.0
2422,181.73046875,2907,44.0,0.0
2423,181.732421875,2907,45.0,0.0
2424,181.734375,2907,44.0,0.0
2425,181.736328125,2907,43.0,0.0
2426,181.73828125,2907,42.0,0.0
2427,181.740234375,2907,42.0,0.0
2428,181.7421875,2907,43.0,0.0
2429,181.744140625,2907,43.0,0.0
2430,181.74609375,2907,43.0,0.0
2431,181.748046875,2907,42.0,0.0
2432,181.75,2908,42.0,0.0
2433,181.751953125,2908,43.0,0.0
2434,181.75390625,2908,44.0,0.0
2435,181.755859375,2908,44.0,0.0
2436,181.7578125,2908,42.0,0.0
2437,181.759765625,2908,42.0,0.0
2438,181.76171875,2908,43.0,0.0
2439,181.763671875,2908,44.0,0.0
2440,181.765625,2908,44.0,0.0
2441,181.767578125,2908,44.0,0.0
2442,181.76953125,2908,43.0,0.0
2443,181.771484375,2908,43.0,0.0
2444,181.7734375,2908,43.0,0.0
2445,181.775390625,2908,42.0,0.0
2446,181.77734375,2908,43.0,0.0
2447,181.779296875,2908,44.0,0.0
2448,181.78125,2908,44.0,0.0
2449,181.783203125,2908,44.0,0.0
2450,181.78515625,2908,44.0,0.0
2451,181.787109375,2908,44.0,0.0
2452,181.7890625,2908,44.0,0.0
2453,181.791015625,2908,44.0,0.0
2454,181.79296875,2908,44.0,0.0
2455,181.794921875,2908,44.0,0.0
2456,181.796875,2908,44.0,0.0
2457,181.798828125,2908,44.0,0.0
2458,181.80078125,2908,43.0,0.0
2459,181.802734375,2908,44.0,0.0
2460,181.8046875,2908,44.0,0.0
2461,181.806640625,2908,43.0,0.0
2462,181.80859375,2908,43.0,0.0
2463,181.810546875,2908,43.0,0.0
2464,181.8125,2909,42.0,0.0
2465,181.814453125,2909,42.0,0.0
2466,181.81640625,2909,43.0,0.0
2467,181.818359375,2909,43.0,0.0
2468,181.8203125,2909,43.0,0.0
2469,181.822265625,2909,42.0,0.0
2470,181.82421875,2909,42.0,0.0
2471,181.826171875,2909,42.0,0.0
2472,181.828125,2909,43.0,0.0
2473,181.830078125,2909,42.0,0.0
2474,181.83203125,2909,42.0,0.0
2475,181.833984375,2909,42.0,0.0
2476,181.8359375,2909,42.0,0.0
2477,181.837890625,2909,42.0,0.0
2478,181.83984375,2909,42.0,0.0
2479,181.841796875,2909,42.0,0.0
2480,181.84375,2909,42.0,0.0
2481,181.845703125,2909,42.0,0.0
2482,181.84765625,2909,42.0,0.0
2483,181.849609375,2909,41.0,0.0
2484,181.8515625,2909,41.0,0.0
2485,181.853515625,2909,41.0,0.0
2486,181.85546875,2909,41.0,0.0
2487,181.857421875,2909,41.0,0.0
2488,181.859375,2909,40.0,0.0
2489,181.861328125,2909,39.0,0.0
2490,181.86328125,2909,37.0,0.0
2491,181.865234375,2909,32.0,0.0
2492,181.8671875,2909,22.0,0.0
2493,181.869140625,2909,6.0,0.0
2494,181.87109375,2909,-9.0,0.0
2495,181.873046875,2909,-22.0,0.0
2496,181.875,2910,-24.0,0.0
2497,181.876953125,2910,-35.0,0.0
2498,181.87890625,2910,-54.0,0.0
2499,181.880859375,2910,-58.0,0.0
2500,181.8828125,2910,-45.0,0.0
2501,181.884765625,2910,-33.0,0.0
2502,181.88671875,2910,-29.0,0.0
2503,181.888671875,2910,-39.0,0.0
2504,181.890625,2910,-51.0,0.0
2505,181.892578125,2910,-59.0,0.0
2506,181.89453125,2910,-55.0,0.0
2507,181.896484375,2910,-27.0,0.0
2508,181.8984375,2910,-3.0,0.0
2509,181.900390625,2910,10.0,0.0
2510,181.90234375,2910,18.0,0.0
2511,181.904296875,2910,18.0,0.0
2512,181.90625,2910,19.0,0.0
2513,181.908203125,2910,21.0,0.0
2514,181.91015625,2910,19.0,0.0
2515,181.912109375,2910,19.0,0.0
2516,181.9140625,2910,21.0,0.0
2517,181.916015625,2910,25.0,0.0
2518,181.91796875,2910,38.0,0.0
2519,181.919921875,2910,48.0,0.0
2520,181.921875,2910,48.0,0.0
2521,181.923828125,2910,39.0,0.0
2522,181.92578125,2910,35.0,0.0
2523,181.927734375,2910,22.0,0.0
2524,181.9296875,2910,1.0,0.0
2525,181.931640625,2910,-13.0,0.0
2526,181.93359375,2910,-23.0,0.0
2527,181.935546875,2910,-21.0,0.0
2528,181.9375,2911,-33.0,0.0
2529,181.939453125,2911,-70.0,0.0
2530,181.94140625,2911,-105.0,0.0
2531,181.943359375,2911,-116.0,0.0
2532,181.9453125,2911,-109.0,0.0
2533,181.947265625,2911,-97.0,0.0
2534,181.94921875,2911,-85.0,0.0
2535,181.951171875,2911,-56.0,0.0
2536,181.953125,2911,-33.0,0.0
2537,181.955078125,2911,-11.0,0.0
2538,181.95703125,2911,13.0,0.0
2539,181.958984375,2911,36.0,0.0
2540,181.9609375,2911,50.0,0.0
2541,181.962890625,2911,64.0,0.0
2542,181.96484375,2911,77.0,0.0
2543,181.966796875,2911,81.0,0.0
2544,181.96875,2911,80.0,0.0
2545,181.970703125,2911,80.0,0.0
2546,181.97265625,2911,80.0,0.0
2547,181.974609375,2911,77.0,0.0
2548,181.9765625,2911,77.0,0.0
2549,181.978515625,2911,81.0,0.0
2550,181.98046875,2911,84.0,0.0
2551,181.982421875,2911,82.0,0.0
2552,181.984375,2911,73.0,0.0
2553,181.986328125,2911,66.0,0.0
2554,181.98828125,2911,65.0,0.0
2555,181.990234375,2911,70.0,0.0
2556,181.9921875,2911,76.0,0.0
2557,181.994140625,2911,82.0,0.0
2558,181.99609375,2911,81.0,0.0
2559,181.998046875,2911,80.0,0.0
2560,182.0,2912,84.0,0.0
2561,182.001953125,2912,90.0,0.0
2562,182.00390625,2912,90.0,0.0
2563,182.005859375,2912,88.0,0.0
2564,182.0078125,2912,88.0,0.0
2565,182.009765625,2912,90.0,0.0
2566,182.01171875,2912,89.0,0.0
2567,182.013671875,2912,86.0,0.0
2568,182.015625,2912,82.0,0.0
2569,182.017578125,2912,80.0,0.0
2570,182.01953125,2912,80.0,0.0
2571,182.021484375,2912,80.0,0.0
2572,182.0234375,2912,82.0,0.0
2573,182.025390625,2912,81.0,0.0
2574,182.02734375,2912,77.0,0.0
2575,182.029296875,2912,75.0,0.0
2576,182.03125,2912,74.0,0.0
2577,182.033203125,2912,74.0,0.0
2578,182.03515625,2912,73.0,0.0
2579,182.037109375,2912,68.0,0.0
2580,182.0390625,2912,60.0,0.0
2581,182.041015625,2912,65.0,0.0
2582,182.04296875,2912,68.0,0.0
2583,182.044921875,2912,65.0,0.0
2584,182.046875,2912,59.0,0.0
2585,182.048828125,2912,60.0,0.0
2586,182.05078125,2912,65.0,0.0
2587,182.052734375,2912,65.0,0.0
2588,182.0546875,2912,58.0,0.0
2589,182.056640625,2912,51.0,0.0
2590,182.05859375,2912,49.0,0.0
2591,182.060546875,2912,48.0,0.0
2592,182.0625,2913,43.0,0.0
2593,182.064453125,2913,41.0,0.0
2594,182.06640625,2913,39.0,0.0
2595,182.068359375,2913,38.0,0.0
2596,182.0703125,2913,36.0,0.0
2597,182.072265625,2913,27.0,0.0
2598,182.07421875,2913,23.0,0.0
2599,182.076171875,2913,22.0,0.0
2600,182.078125,2913,20.0,0.0
2601,182.080078125,2913,17.0,0.0
2602,182.08203125,2913,9.0,0.0
2603,182.083984375,2913,0.0,0.0
2604,182.0859375,2913,5.0,0.0
2605,182.087890625,2913,11.0,0.0
2606,182.08984375,2913,6.0,0.0
2607,182.091796875,2913,2.0,0.0
2608,182.09375,2913,5.0,0.0
2609,182.095703125,2913,16.0,0.0
2610,182.09765625,2913,20.0,0.0
2611,182.099609375,2913,20.0,0.0
2612,182.1015625,2913,16.0,0.0
2613,182.103515625,2913,11.0,0.0
2614,182.10546875,2913,21.0,0.0
2615,182.107421875,2913,35.0,0.0
2616,182.109375,2913,34.0,0.0
2617,182.111328125,2913,26.0,0.0
2618,182.11328125,2913,26.0,0.0
2619,182.115234375,2913,34.0,0.0
2620,182.1171875,2913,39.0,0.0
2621,182.119140625,2913,36.0,0.0
2622,182.12109375,2913,36.0,0.0
2623,182.123046875,2913,43.0,0.0
2624,182.125,2914,44.0,0.0
2625,182.126953125,2914,44.0,0.0
2626,182.12890625,2914,42.0,0.0
2627,182.130859375,2914,41.0,0.0
2628,182.1328125,2914,48.0,0.0
2629,182.134765625,2914,50.0,0.0
2630,182.13671875,2914,42.0,0.0
2631,182.138671875,2914,29.0,0.0
2632,182.140625,2914,35.0,0.0
2633,182.142578125,2914,44.0,0.0
2634,182.14453125,2914,51.0,0.0
2635,182.146484375,2914,50.0,0.0
2636,182.1484375,2914,40.0,0.0
2637,182.150390625,2914,37.0,0.0
2638,182.15234375,2914,43.0,0.0
2639,182.154296875,2914,50.0,0.0
2640,182.15625,2914,53.0,0.0
2641,182.158203125,2914,53.0,0.0
2642,182.16015625,2914,54.0,0.0
2643,182.162109375,2914,53.0,0.0
2644,182.1640625,2914,48.0,0.0
2645,182.166015625,2914,44.0,0.0
2646,182.16796875,2914,49.0,0.0
2647,182.169921875,2914,52.0,0.0
2648,182.171875,2914,54.0,0.0
2649,182.173828125,2914,48.0,0.0
2650,182.17578125,2914,36.0,0.0
2651,182.177734375,2914,34.0,0.0
2652,182.1796875,2914,37.0,0.0
2653,182.181640625,2914,37.0,0.0
2654,182.18359375,2914,34.0,0.0
2655,182.185546875,2914,32.0,0.0
2656,182.1875,2915,27.0,0.0
2657,182.189453125,2915,27.0,0.0
2658,182.19140625,2915,34.0,0.0
2659,182.193359375,2915,33.0,0.0
2660,182.1953125,2915,22.0,0.0
2661,182.197265625,2915,21.0,0.0
2662,182.19921875,2915,25.0,0.0
2663,182.201171875,2915,26.0,0.0
2664,182.203125,2915,20.0,0.0
2665,182.205078125,2915,19.0,0.0
2666,182.20703125,2915,27.0,0.0
2667,182.208984375,2915,37.0,0.0
2668,182.2109375,2915,40.0,0.0
2669,182.212890625,2915,41.0,0.0
2670,182.21484375,2915,38.0,0.0
2671,182.216796875,2915,39.0,0.0
2672,182.21875,2915,50.0,0.0
2673,182.220703125,2915,55.0,0.0
2674,182.22265625,2915,53.0,0.0
2675,182.224609375,2915,44.0,0.0
2676,182.2265625,2915,41.0,0.0
2677,182.228515625,2915,53.0,0.0
2678,182.23046875,2915,66.0,0.0
2679,182.232421875,2915,69.0,0.0
2680,182.234375,2915,66.0,0.0
2681,182.236328125,2915,66.0,0.0
2682,182.23828125,2915,64.0,0.0
2683,182.240234375,2915,57.0,0.0
2684,182.2421875,2915,60.0,0.0
2685,182.244140625,2915,68.0,0.0
2686,182.24609375,2915,70.0,0.0
2687,182.248046875,2915,74.0,0.0
2688,182.25,2916,80.0,0.0
2689,182.251953125,2916,74.0,0.0
2690,182.25390625,2916,60.0,0.0
2691,182.255859375,2916,54.0,0.0
2692,182.2578125,2916,59.0,0.0
2693,182.259765625,2916,66.0,0.0
2694,182.26171875,2916,64.0,0.0
2695,182.263671875,2916,53.0,0.0
2696,182.265625,2916,45.0,0.0
2697,182.267578125,2916,52.0,0.0
2698,182.26953125,2916,60.0,0.0
2699,182.271484375,2916,68.0,0.0
2700,182.2734375,2916,70.0,0.0
2701,182.275390625,2916,65.0,0.0
2702,182.27734375,2916,56.0,0.0
2703,182.279296875,2916,53.0,0.0
2704,182.28125,2916,49.0,0.0
2705,182.283203125,2916,44.0,0.0
2706,182.28515625,2916,38.0,0.0
2707,182.287109375,2916,33.0,0.0
2708,182.2890625,2916,33.0,0.0
2709,182.291015625,2916,38.0,0.0
2710,182.29296875,2916,37.0,0.0
2711,182.294921875,2916,24.0,0.0
2712,182.296875,2916,17.0,0.0
2713,182.298828125,2916,10.0,0.0
2714,182.30078125,2916,8.0,0.0
2715,182.302734375,2916,5.0,0.0
2716,182.3046875,2916,0.0,0.0
2717,182.306640625,2916,-9.0,0.0
2718,182.30859375,2916,-21.0,0.0
2719,182.310546875,2916,-29.0,0.0
2720,182.3125,2917,-39.0,0.0
2721,182.314453125,2917,-51.0,0.0
2722,182.31640625,2917,-72.0,0.0
2723,182.318359375,2917,-98.0,0.0
2724,182.3203125,2917,-125.0,0.0
2725,182.322265625,2917,-182.0,0.0
2726,182.32421875,2917,-261.0,0.0
2727,182.326171875,2917,-313.0,0.0
2728,182.328125,2917,-330.0,0.0
2729,182.330078125,2917,-369.0,0.0
2730,182.33203125,2917,-461.0,0.0
2731,182.333984375,2917,-618.0,0.0
2732,182.3359375,2917,-829.0,0.0
2733,182.337890625,2917,-1050.0,0.0
2734,182.33984375,2917,-1235.0,0.0
2735,182.341796875,2917,-1326.0,0.0
2736,182.34375,2917,-1426.0,0.0
2737,182.345703125,2917,-1629.0,0.0
2738,182.34765625,2917,-1810.0,0.0
2739,182.349609375,2917,-1850.0,0.0
2740,182.3515625,2917,-1845.0,0.0
2741,182.353515625,2917,-1846.0,0.0
2742,182.35546875,2917,-1884.0,0.0
2743,182.357421875,2917,-1924.0,0.0
2744,182.359375,2917,-1890.0,0.0
2745,182.361328125,2917,-1805.0,0.0
2746,182.36328125,2917,-1758.0,0.0
2747,182.365234375,2917,-1755.0,0.0
2748,182.3671875,2917,-1752.0,0.0
2749,182.369140625,2917,-1655.0,0.0
2750,182.37109375,2917,-1448.0,0.0
2751,182.373046875,2917,-1276.0,0.0
2752,182.375,2918,-1203.0,0.0
2753,182.376953125,2918,-1174.0,0.0
2754,182.37890625,2918,-1116.0,0.0
2755,182.380859375,2918,-1000.0,0.0
2756,182.3828125,2918,-869.0,0.0
2757,182.384765625,2918,-796.0,0.0
2758,182.38671875,2918,-716.0,0.0
2759,182.388671875,2918,-588.0,0.0
2760,182.390625,2918,-420.0,0.0
2761,182.392578125,2918,-249.0,0.0
2762,182.39453125,2918,-135.0,0.0
2763,182.396484375,2918,-12.0,0.0
2764,182.3984375,2918,146.0,0.0
2765,182.400390625,2918,298.0,0.0
2766,182.40234375,2918,419.0,0.0
2767,182.404296875,2918,489.0,0.0
2768,182.40625,2918,523.0,0.0
2769,182.408203125,2918,567.0,0.0
2770,182.41015625,2918,665.0,0.0
2771,182.412109375,2918,773.0,0.0
2772,182.4140625,2918,835.0,0.0
2773,182.416015625,2918,900.0,0.0
2774,182.41796875,2918,973.0,0.0
2775,182.419921875,2918,1001.0,0.0
2776,182.421875,2918,998.0,0.0
2777,182.423828125,2918,994.0,0.0
2778,182.42578125,2918,992.0,0.0
2779,182.427734375,2918,997.0,0.0
2780,182.4296875,2918,1000.0,0.0
2781,182.431640625,2918,1003.0,0.0
2782,182.43359375,2918,992.0,0.0
2783,182.435546875,2918,976.0,0.0
2784,182.4375,2919,970.0,0.0
2785,182.439453125,2919,967.0,0.0
2786,182.44140625,2919,955.0,0.0
2787,182.443359375,2919,930.0,0.0
2788,182.4453125,2919,902.0,0.0
2789,182.447265625,2919,868.0,0.0
2790,182.44921875,2919,826.0,0.0
2791,182.451171875,2919,796.0,0.0
2792,182.453125,2919,787.0,0.0
2793,182.455078125,2919,785.0,0.0
2794,182.45703125,2919,755.0,0.0
2795,182.458984375,2919,715.0,0.0
2796,182.4609375,2919,701.0,0.0
2797,182.462890625,2919,701.0,0.0
2798,182.46484375,2919,696.0,0.0
2799,182.466796875,2919,678.0,0.0
2800,182.46875,2919,660.0,0.0
2801,182.470703125,2919,646.0,0.0
2802,182.47265625,2919,621.0,0.0
2803,182.474609375,2919,596.0,0.0
2804,182.4765625,2919,579.0,0.0
2805,182.478515625,2919,557.0,0.0
2806,182.48046875,2919,537.0,0.0
2807,182.482421875,2919,518.0,0.0
2808,182.484375,2919,505.0,0.0
2809,182.486328125,2919,500.0,0.0
2810,182.48828125,2919,491.0,0.0
2811,182.490234375,2919,483.0,0.0
2812,182.4921875,2919,477.0,0.0
2813,182.494140625,2919,461.0,0.0
2814,182.49609375,2919,439.0,0.0
2815,182.498046875,2919,422.0,0.0
2816,182.5,2920,410.0,0.0
2817,182.501953125,2920,402.0,0.0
2818,182.50390625,2920,391.0,0.0
2819,182.505859375,2920,379.0,0.0
2820,182.5078125,2920,364.0,0.0
2821,182.509765625,2920,359.0,0.0
2822,182.51171875,2920,355.0,33553.0
2823,182.513671875,2920,355.0,33554.0
2824,182.515625,2920,344.0,0.0
2825,182.517578125,2920,329.0,0.0
2826,182.51953125,2920,310.0,0.0
2827,182.521484375,2920,293.0,0.0
2828,182.5234375,2920,283.0,0.0
2829,182.525390625,2920,278.0,0.0
2830,182.52734375,2920,268.0,0.0
2831,182.529296875,2920,259.0,0.0
2832,182.53125,2920,248.0,0.0
2833,182.533203125,2920,236.0,0.0
2834,182.53515625,2920,230.0,0.0
2835,182.537109375,2920,220.0,0.0
2836,182.5390625,2920,203.0,0.0
2837,182.541015625,2920,182.0,0.0
2838,182.54296875,2920,180.0,0.0
2839,182.544921875,2920,180.0,0.0
2840,182.546875,2920,166.0,0.0
2841,182.548828125,2920,136.0,0.0
2842,182.55078125,2920,108.0,0.0
2843,182.552734375,2920,76.0,0.0
2844,182.5546875,2920,33.0,0.0
2845,182.556640625,2920,-18.0,0.0
2846,182.55859375,2920,-113.0,0.0
2847,182.560546875,2920,-375.0,0.0
2848,182.5625,2921,-936.0,0.0
2849,182.564453125,2921,-1593.0,0.0
2850,182.56640625,2921,-2048.0,0.0
2851,182.568359375,2921,-2048.0,0.0
2852,182.5703125,2921,-2048.0,0.0
2853,182.572265625,2921,-2048.0,0.0
2854,182.57421875,2921,-2048.0,0.0
2855,182.576171875,2921,-2048.0,0.0
2856,182.578125,2921,-2048.0,0.0
2857,182.580078125,2921,-2048.0,0.0
2858,182.58203125,2921,-2048.0,0.0
2859,182.583984375,2921,-2048.0,0.0
2860,182.5859375,2921,-2048.0,0.0
2861,182.587890625,2921,-2048.0,0.0
2862,182.58984375,2921,-2048.0,0.0
2863,182.591796875,2921,-2048.0,0.0
2864,182.59375,2921,-2048.0,0.0
2865,182.595703125,2921,-2048.0,0.0
2866,182.59765625,2921,-2048.0,0.0
2867,182.599609375,2921,-1821.0,0.0
2868,182.6015625,2921,-1539.0,0.0
2869,182.603515625,2921,-1274.0,0.0
2870,182.60546875,2921,-1063.0,0.0
2871,182.607421875,2921,-856.0,0.0
2872,182.609375,2921,-666.0,0.0
2873,182.611328125,2921,-502.0,0.0
2874,182.61328125,2921,-333.0,0.0
2875,182.615234375,2921,-187.0,0.0
2876,182.6171875,2921,-140.0,0.0
2877,182.619140625,2921,-140.0,0.0
2878,182.62109375,2921,-121.0,0.0
2879,182.623046875,2921,-109.0,0.0
2880,182.625,2922,-149.0,0.0
2881,182.626953125,2922,-289.0,0.0
2882,182.62890625,2922,-474.0,0.0
2883,182.630859375,2922,-669.0,0.0
2884,182.6328125,2922,-865.0,0.0
2885,182.634765625,2922,-1030.0,0.0
2886,182.63671875,2922,-1212.0,0.0
2887,182.638671875,2922,-1524.0,0.0
2888,182.640625,2922,-1914.0,0.0
2889,182.642578125,2922,-2048.0,0.0
2890,182.64453125,2922,-2048.0,0.0
2891,182.646484375,2922,-2048.0,0.0
2892,182.6484375,2922,-2044.0,0.0
2893,182.650390625,2922,-1966.0,0.0
2894,182.65234375,2922,-1894.0,0.0
2895,182.654296875,2922,-1821.0,0.0
2896,182.65625,2922,-1754.0,0.0
2897,182.658203125,2922,-1689.0,0.0
2898,182.66015625,2922,-1626.0,0.0
2899,182.662109375,2922,-1564.0,0.0
2900,182.6640625,2922,-1509.0,0.0
2901,182.666015625,2922,-1451.0,0.0
2902,182.66796875,2922,-1397.0,0.0
2903,182.669921875,2922,-1346.0,0.0
2904,182.671875,2922,-1294.0,0.0
2905,182.673828125,2922,-1245.0,0.0
2906,182.67578125,2922,-1198.0,0.0
2907,182.677734375,2922,-1154.0,0.0
2908,182.6796875,2922,-1110.0,0.0
2909,182.681640625,2922,-1067.0,0.0
2910,182.68359375,2922,-1028.0,0.0
2911,182.685546875,2922,-987.0,0.0
2912,182.6875,2923,-951.0,0.0
2913,182.689453125,2923,-915.0,0.0
2914,182.69140625,2923,-881.0,0.0
2915,182.693359375,2923,-845.0,0.0
2916,182.6953125,2923,-812.0,0.0
2917,182.697265625,2923,-781.0,0.0
2918,182.69921875,2923,-753.0,0.0
2919,182.701171875,2923,-724.0,0.0
2920,182.703125,2923,-695.0,0.0
2921,182.705078125,2923,-668.0,0.0
2922,182.70703125,2923,-643.0,0.0
2923,182.708984375,2923,-618.0,0.0
2924,182.7109375,2923,-594.0,0.0
2925,182.712890625,2923,-570.0,0.0
2926,182.71484375,2923,-549.0,0.0
2927,182.716796875,2923,-526.0,0.0
2928,182.71875,2923,-506.0,0.0
2929,182.720703125,2923,-486.0,0.0
2930,182.72265625,2923,-467.0,0.0
2931,182.724609375,2923,-449.0,0.0
2932,182.7265625,2923,-429.0,0.0
2933,182.728515625,2923,-412.0,0.0
2934,182.73046875,2923,-395.0,0.0
2935,182.732421875,2923,-380.0,0.0
2936,182.734375,2923,-364.0,0.0
2937,182.736328125,2923,-349.0,0.0
2938,182.73828125,2923,-337.0,0.0
2939,182.740234375,2923,-323.0,0.0
2940,182.7421875,2923,-309.0,0.0
2941,182.744140625,2923,-296.0,0.0
2942,182.74609375,2923,-283.0,0.0
2943,182.748046875,2923,-273.0,0.0
2944,182.75,2924,-261.0,0.0
2945,182.751953125,2924,-249.0,0.0
2946,182.75390625,2924,-238.0,0.0
2947,182.755859375,2924,-229.0,0.0
2948,182.7578125,2924,-218.0,0.0
2949,182.759765625,2924,-210.0,0.0
2950,182.76171875,2924,-200.0,0.0
2951,182.763671875,2924,-193.0,0.0
2952,182.765625,2924,-183.0,0.0
2953,182.767578125,2924,-174.0,0.0
2954,182.76953125,2924,-168.0,0.0
2955,182.771484375,2924,-161.0,0.0
2956,182.7734375,2924,-152.0,0.0
2957,182.775390625,2924,-146.0,0.0
2958,182.77734375,2924,-138.0,0.0
2959,182.779296875,2924,-132.0,0.0
2960,182.78125,2924,-124.0,0.0
2961,182.783203125,2924,-119.0,0.0
2962,182.78515625,2924,-115.0,0.0
2963,182.787109375,2924,-108.0,0.0
2964,182.7890625,2924,-102.0,0.0
2965,182.791015625,2924,-98.0,0.0
2966,182.79296875,2924,-91.0,0.0
2967,182.794921875,2924,-85.0,0.0
2968,182.796875,2924,-74.0,0.0
2969,182.798828125,2924,-50.0,0.0
2970,182.80078125,2924,5.0,0.0
2971,182.802734375,2924,86.0,0.0
2972,182.8046875,2924,181.0,0.0
2973,182.806640625,2924,280.0,0.0
2974,182.80859375,2924,400.0,0.0
2975,182.810546875,2924,550.0,0.0
2976,182.8125,2925,749.0,0.0
2977,182.814453125,2925,983.0,0.0
2978,182.81640625,2925,1204.0,0.0
2979,182.818359375,2925,1416.0,0.0
2980,182.8203125,2925,1606.0,0.0
2981,182.822265625,2925,1796.0,0.0
2982,182.82421875,2925,1990.0,0.0
2983,182.826171875,2925,2047.0,0.0
2984,182.828125,2925,2047.0,0.0
2985,182.830078125,2925,2047.0,0.0
2986,182.83203125,2925,2047.0,0.0
2987,182.833984375,2925,2047.0,0.0
2988,182.8359375,2925,2047.0,0.0
2989,182.837890625,2925,2047.0,0.0
2990,182.83984375,2925,2047.0,0.0
2991,182.841796875,2925,2047.0,0.0
2992,182.84375,2925,2047.0,0.0
2993,182.845703125,2925,2047.0,0.0
2994,182.84765625,2925,2047.0,0.0
2995,182.849609375,2925,2047.0,0.0
2996,182.8515625,2925,2047.0,0.0
2997,182.853515625,2925,2047.0,0.0
2998,182.85546875,2925,2047.0,0.0
2999,182.857421875,2925,2047.0,0.0
3000,182.859375,2925,2047.0,0.0
3001,182.861328125,2925,2047.0,0.0
3002,182.86328125,2925,2047.0,0.0
3003,182.865234375,2925,2047.0,0.0
3004,182.8671875,2925,2047.0,0.0
3005,182.869140625,2925,2047.0,0.0
3006,182.87109375,2925,2047.0,0.0
3007,182.873046875,2925,2047.0,0.0
3008,182.875,2926,2047.0,0.0
3009,182.876953125,2926,2047.0,0.0
3010,182.87890625,2926,2047.0,0.0
3011,182.880859375,2926,2047.0,0.0
3012,182.8828125,2926,1980.0,0.0
3013,182.884765625,2926,1912.0,0.0
3014,182.88671875,2926,1844.0,0.0
3015,182.888671875,2926,1780.0,0.0
3016,182.890625,2926,1718.0,0.0
3017,182.892578125,2926,1657.0,0.0
3018,182.89453125,2926,1600.0,0.0
3019,182.896484375,2926,1542.0,0.0
3020,182.8984375,2926,1488.0,0.0
3021,182.900390625,2926,1434.0,0.0
3022,182.90234375,2926,1384.0,0.0
3023,182.904296875,2926,1335.0,0.0
3024,182.90625,2926,1287.0,0.0
3025,182.908203125,2926,1241.0,0.0
3026,182.91015625,2926,1200.0,0.0
3027,182.912109375,2926,1156.0,0.0
3028,182.9140625,2926,1114.0,0.0
3029,182.916015625,2926,1076.0,0.0
3030,182.91796875,2926,1037.0,0.0
3031,182.919921875,2926,1000.0,0.0
3032,182.921875,2926,965.0,0.0
3033,182.923828125,2926,932.0,0.0
3034,182.92578125,2926,899.0,0.0
3035,182.927734375,2926,868.0,0.0
3036,182.9296875,2926,837.0,0.0
3037,182.931640625,2926,808.0,0.0
3038,182.93359375,2926,779.0,0.0
3039,182.935546875,2926,754.0,0.0
3040,182.9375,2927,726.0,0.0
3041,182.939453125,2927,700.0,0.0
3042,182.94140625,2927,677.0,0.0
3043,182.943359375,2927,653.0,0.0
3044,182.9453125,2927,631.0,0.0
3045,182.947265625,2927,610.0,0.0
3046,182.94921875,2927,588.0,0.0
3047,182.951171875,2927,569.0,0.0
3048,182.953125,2927,550.0,0.0
3049,182.955078125,2927,531.0,0.0
3050,182.95703125,2927,513.0,0.0
3051,182.958984375,2927,496.0,0.0
3052,182.9609375,2927,480.0,0.0
3053,182.962890625,2927,461.0,0.0
3054,182.96484375,2927,448.0,0.0
3055,182.966796875,2927,432.0,0.0
3056,182.96875,2927,418.0,0.0
3057,182.970703125,2927,404.0,0.0
3058,182.97265625,2927,390.0,0.0
3059,182.974609375,2927,377.0,0.0
3060,182.9765625,2927,364.0,0.0
3061,182.978515625,2927,354.0,0.0
3062,182.98046875,2927,342.0,0.0
3063,182.982421875,2927,330.0,0.0
3064,182.984375,2927,320.0,0.0
3065,182.986328125,2927,309.0,0.0
3066,182.98828125,2927,299.0,0.0
3067,182.990234375,2927,290.0,0.0
3068,182.9921875,2927,281.0,0.0
3069,182.994140625,2927,273.0,0.0
3070,182.99609375,2927,263.0,0.0
3071,182.998046875,2927,256.0,0.0
3072,183.0,2928,247.0,0.0
3073,183.001953125,2928,240.0,0.0
3074,183.00390625,2928,232.0,0.0
3075,183.005859375,2928,226.0,0.0
3076,183.0078125,2928,218.0,0.0
3077,183.009765625,2928,212.0,0.0
3078,183.01171875,2928,204.0,0.0
3079,183.013671875,2928,199.0,0.0
3080,183.015625,2928,194.0,0.0
3081,183.017578125,2928,187.0,0.0
3082,183.01953125,2928,182.0,0.0
3083,183.021484375,2928,178.0,0.0
3084,183.0234375,2928,171.0,0.0
3085,183.025390625,2928,166.0,0.0
3086,183.02734375,2928,163.0,0.0
3087,183.029296875,2928,156.0,0.0
3088,183.03125,2928,153.0,0.0
3089,183.033203125,2928,149.0,0.0
3090,183.03515625,2928,146.0,0.0
3091,183.037109375,2928,140.0,0.0
3092,183.0390625,2928,136.0,0.0
3093,183.041015625,2928,134.0,0.0
3094,183.04296875,2928,130.0,0.0
3095,183.044921875,2928,125.0,0.0
3096,183.046875,2928,123.0,0.0
3097,183.048828125,2928,120.0,0.0
3098,183.05078125,2928,117.0,0.0
3099,183.052734375,2928,115.0,0.0
3100,183.0546875,2928,112.0,0.0
3101,183.056640625,2928,107.0,0.0
3102,183.05859375,2928,106.0,0.0
3103,183.060546875,2928,103.0,0.0
3104,183.0625,2929,101.0,0.0
3105,183.064453125,2929,99.0,0.0
3106,183.06640625,2929,97.0,0.0
3107,183.068359375,2929,96.0,0.0
3108,183.0703125,2929,91.0,0.0
3109,183.072265625,2929,90.0,0.0
3110,183.07421875,2929,88.0,0.0
3111,183.076171875,2929,86.0,0.0
3112,183.078125,2929,85.0,0.0
3113,183.080078125,2929,84.0,0.0
3114,183.08203125,2929,82.0,0.0
3115,183.083984375,2929,81.0,0.0
3116,183.0859375,2929,80.0,0.0
3117,183.087890625,2929,76.0,0.0
3118,183.08984375,2929,74.0,0.0
3119,183.091796875,2929,73.0,0.0
3120,183.09375,2929,72.0,0.0
3121,183.095703125,2929,71.0,0.0
3122,183.09765625,2929,70.0,0.0
3123,183.099609375,2929,69.0,0.0
3124,183.1015625,2929,68.0,0.0
3125,183.103515625,2929,67.0,0.0
3126,183.10546875,2929,66.0,0.0
3127,183.107421875,2929,65.0,0.0
3128,183.109375,2929,64.0,0.0
3129,183.111328125,2929,64.0,0.0
3130,183.11328125,2929,61.0,0.0
3131,183.115234375,2929,60.0,0.0
3132,183.1171875,2929,59.0,0.0
3133,183.119140625,2929,58.0,0.0
3134,183.12109375,2929,57.0,0.0
3135,183.123046875,2929,57.0,0.0
3136,183.125,2930,57.0,0.0
3137,183.126953125,2930,56.0,0.0
3138,183.12890625,2930,55.0,0.0
3139,183.130859375,2930,55.0,0.0
3140,183.1328125,2930,55.0,0.0
3141,183.134765625,2930,54.0,0.0
3142,183.13671875,2930,54.0,0.0
3143,183.138671875,2930,53.0,0.0
3144,183.140625,2930,52.0,0.0
3145,183.142578125,2930,52.0,0.0
3146,183.14453125,2930,51.0,0.0
3147,183.146484375,2930,51.0,0.0
3148,183.1484375,2930,51.0,0.0
3149,183.150390625,2930,51.0,0.0
3150,183.15234375,2930,50.0,0.0
3151,183.154296875,2930,50.0,0.0
3152,183.15625,2930,49.0,0.0
3153,183.158203125,2930,49.0,0.0
3154,183.16015625,2930,49.0,0.0
3155,183.162109375,2930,50.0,0.0
3156,183.1640625,2930,49.0,0.0
3157,183.166015625,2930,49.0,0.0
3158,183.16796875,2930,48.0,0.0
3159,183.169921875,2930,49.0,0.0
3160,183.171875,2930,49.0,0.0
3161,183.173828125,2930,49.0,0.0
3162,183.17578125,2930,45.0,0.0
3163,183.177734375,2930,48.0,0.0
3164,183.1796875,2930,45.0,0.0
3165,183.181640625,2930,44.0,0.0
3166,183.18359375,2930,44.0,0.0
3167,183.185546875,2930,44.0,0.0
3168,183.1875,2931,44.0,0.0
3169,183.189453125,2931,44.0,0.0
3170,183.19140625,2931,44.0,0.0
3171,183.193359375,2931,43.0,0.0
3172,183.1953125,2931,43.0,0.0
3173,183.197265625,2931,43.0,0.0
3174,183.19921875,2931,43.0,0.0
3175,183.201171875,2931,42.0,0.0
3176,183.203125,2931,42.0,0.0
3177,183.205078125,2931,42.0,0.0
3178,183.20703125,2931,41.0,0.0
3179,183.208984375,2931,41.0,0.0
3180,183.2109375,2931,41.0,0.0
3181,183.212890625,2931,41.0,0.0
3182,183.21484375,2931,41.0,0.0
3183,183.216796875,2931,41.0,0.0
3184,183.21875,2931,40.0,0.0
3185,183.220703125,2931,40.0,0.0
3186,183.22265625,2931,40.0,0.0
3187,183.224609375,2931,40.0,0.0
3188,183.2265625,2931,40.0,0.0
3189,183.228515625,2931,39.0,0.0
3190,183.23046875,2931,39.0,0.0
3191,183.232421875,2931,40.0,0.0
3192,183.234375,2931,39.0,0.0
3193,183.236328125,2931,39.0,0.0
3194,183.23828125,2931,38.0,0.0
3195,183.240234375,2931,39.0,0.0
3196,183.2421875,2931,39.0,0.0
3197,183.244140625,2931,39.0,0.0
3198,183.24609375,2931,39.0,0.0
3199,183.248046875,2931,38.0,0.0
3200,183.25,2932,38.0,0.0
3201,183.251953125,2932,38.0,0.0
3202,183.25390625,2932,38.0,0.0
3203,183.255859375,2932,38.0,0.0
3204,183.2578125,2932,39.0,0.0
3205,183.259765625,2932,38.0,0.0
3206,183.26171875,2932,38.0,0.0
3207,183.263671875,2932,38.0,0.0
3208,183.265625,2932,38.0,0.0
3209,183.267578125,2932,38.0,0.0
3210,183.26953125,2932,39.0,0.0
3211,183.271484375,2932,38.0,0.0
3212,183.2734375,2932,38.0,0.0
3213,183.275390625,2932,38.0,0.0
3214,183.27734375,2932,38.0,0.0
3215,183.279296875,2932,38.0,0.0
3216,183.28125,2932,38.0,0.0
3217,183.283203125,2932,38.0,0.0
3218,183.28515625,2932,38.0,0.0
3219,183.287109375,2932,38.0,0.0
3220,183.2890625,2932,38.0,0.0
3221,183.291015625,2932,38.0,0.0
3222,183.29296875,2932,38.0,0.0
3223,183.294921875,2932,38.0,0.0
3224,183.296875,2932,38.0,0.0
3225,183.298828125,2932,38.0,0.0
3226,183.30078125,2932,38.0,0.0
3227,183.302734375,2932,38.0,0.0
3228,183.3046875,2932,38.0,0.0
3229,183.306640625,2932,38.0,0.0
3230,183.30859375,2932,38.0,0.0
3231,183.310546875,2932,38.0,0.0
3232,183.3125,2933,38.0,0.0
3233,183.314453125,2933,38.0,0.0
3234,183.31640625,2933,38.0,0.0
3235,183.318359375,2933,39.0,0.0
3236,183.3203125,2933,39.0,0.0
3237,183.322265625,2933,39.0,0.0
3238,183.32421875,2933,39.0,0.0
3239,183.326171875,2933,38.0,0.0
3240,183.328125,2933,38.0,0.0
3241,183.330078125,2933,38.0,0.0
3242,183.33203125,2933,39.0,0.0
3243,183.333984375,2933,38.0,0.0
3244,183.3359375,2933,39.0,0.0
3245,183.337890625,2933,38.0,0.0
3246,183.33984375,2933,38.0,0.0
3247,183.341796875,2933,38.0,0.0
3248,183.34375,2933,38.0,0.0
3249,183.345703125,2933,38.0,0.0
3250,183.34765625,2933,38.0,0.0
3251,183.349609375,2933,38.0,0.0
3252,183.3515625,2933,39.0,0.0
3253,183.353515625,2933,38.0,0.0
3254,183.35546875,2933,38.0,0.0
3255,183.357421875,2933,39.0,0.0
3256,183.359375,2933,38.0,0.0
3257,183.361328125,2933,38.0,0.0
3258,183.36328125,2933,39.0,0.0
3259,183.365234375,2933,39.0,0.0
3260,183.3671875,2933,38.0,0.0
3261,183.369140625,2933,39.0,0.0
3262,183.37109375,2933,38.0,0.0
3263,183.373046875,2933,39.0,0.0
3264,183.375,2934,39.0,0.0
3265,183.376953125,2934,39.0,0.0
3266,183.37890625,2934,39.0,0.0
3267,183.380859375,2934,40.0,0.0
3268,183.3828125,2934,39.0,0.0
3269,183.384765625,2934,39.0,0.0
3270,183.38671875,2934,39.0,0.0
3271,183.388671875,2934,39.0,0.0
3272,183.390625,2934,39.0,0.0
3273,183.392578125,2934,39.0,0.0
3274,183.39453125,2934,39.0,0.0
3275,183.396484375,2934,39.0,0.0
3276,183.3984375,2934,39.0,0.0
3277,183.400390625,2934,39.0,0.0
3278,183.40234375,2934,39.0,0.0
3279,183.404296875,2934,39.0,0.0
3280,183.40625,2934,39.0,0.0
3281,183.408203125,2934,39.0,0.0
3282,183.41015625,2934,39.0,0.0
3283,183.412109375,2934,39.0,0.0
3284,183.4140625,2934,39.0,0.0
3285,183.416015625,2934,39.0,0.0
3286,183.41796875,2934,39.0,0.0
3287,183.419921875,2934,39.0,0.0
3288,183.421875,2934,39.0,0.0
3289,183.423828125,2934,38.0,0.0
3290,183.42578125,2934,39.0,0.0
3291,183.427734375,2934,39.0,0.0
3292,183.4296875,2934,39.0,0.0
3293,183.431640625,2934,39.0,0.0
3294,183.43359375,2934,39.0,0.0
3295,183.435546875,2934,39.0,0.0
3296,183.4375,2935,39.0,0.0
3297,183.439453125,2935,39.0,0.0
3298,183.44140625,2935,39.0,0.0
3299,183.443359375,2935,39.0,0.0
3300,183.4453125,2935,39.0,0.0
3301,183.447265625,2935,39.0,0.0
3302,183.44921875,2935,39.0,0.0
3303,183.451171875,2935,40.0,0.0
3304,183.453125,2935,39.0,0.0
3305,183.455078125,2935,38.0,0.0
3306,183.45703125,2935,39.0,0.0
3307,183.458984375,2935,39.0,0.0
3308,183.4609375,2935,39.0,0.0
3309,183.462890625,2935,39.0,0.0
3310,183.46484375,2935,39.0,0.0
3311,183.466796875,2935,39.0,0.0
3312,183.46875,2935,39.0,0.0
3313,183.470703125,2935,39.0,0.0
3314,183.47265625,2935,39.0,0.0
3315,183.474609375,2935,39.0,0.0
3316,183.4765625,2935,39.0,0.0
3317,183.478515625,2935,39.0,0.0
3318,183.48046875,2935,39.0,0.0
3319,183.482421875,2935,39.0,0.0
3320,183.484375,2935,38.0,0.0
3321,183.486328125,2935,38.0,0.0
3322,183.48828125,2935,39.0,0.0
3323,183.490234375,2935,39.0,0.0
3324,183.4921875,2935,39.0,0.0
3325,183.494140625,2935,38.0,0.0
3326,183.49609375,2935,38.0,0.0
3327,183.498046875,2935,38.0,0.0
3328,183.5,2936,39.0,0.0
3329,183.501953125,2936,38.0,0.0
3330,183.50390625,2936,39.0,0.0
3331,183.505859375,2936,38.0,0.0
3332,183.5078125,2936,38.0,0.0
3333,183.509765625,2936,38.0,0.0
3334,183.51171875,2936,38.0,0.0
3335,183.513671875,2936,38.0,0.0
3336,183.515625,2936,38.0,0.0
3337,183.517578125,2936,38.0,0.0
3338,183.51953125,2936,38.0,0.0
3339,183.521484375,2936,38.0,0.0
3340,183.5234375,2936,38.0,0.0
3341,183.525390625,2936,38.0,0.0
3342,183.52734375,2936,38.0,0.0
3343,183.529296875,2936,38.0,0.0
3344,183.53125,2936,38.0,0.0
3345,183.533203125,2936,38.0,0.0
3346,183.53515625,2936,38.0,0.0
3347,183.537109375,2936,38.0,0.0
3348,183.5390625,2936,38.0,0.0
3349,183.541015625,2936,38.0,0.0
3350,183.54296875,2936,38.0,0.0
3351,183.544921875,2936,37.0,0.0
3352,183.546875,2936,38.0,0.0
3353,183.548828125,2936,38.0,0.0
3354,183.55078125,2936,38.0,0.0
3355,183.552734375,2936,38.0,0.0
3356,183.5546875,2936,38.0,0.0
3357,183.556640625,2936,38.0,0.0
3358,183.55859375,2936,38.0,0.0
3359,183.560546875,2936,38.0,0.0
3360,183.5625,2937,38.0,0.0
3361,183.564453125,2937,38.0,0.0
3362,183.56640625,2937,38.0,0.0
3363,183.568359375,2937,38.0,0.0
3364,183.5703125,2937,37.0,0.0
3365,183.572265625,2937,37.0,0.0
3366,183.57421875,2937,38.0,0.0
3367,183.576171875,2937,38.0,0.0
3368,183.578125,2937,38.0,0.0
3369,183.580078125,2937,38.0,0.0
3370,183.58203125,2937,38.0,0.0
3371,183.583984375,2937,38.0,0.0
3372,183.5859375,2937,38.0,0.0
3373,183.587890625,2937,38.0,0.0
3374,183.58984375,2937,38.0,0.0
3375,183.591796875,2937,38.0,0.0
3376,183.59375,2937,38.0,0.0
3377,183.595703125,2937,38.0,0.0
3378,183.59765625,2937,38.0,0.0
3379,183.599609375,2937,38.0,0.0
3380,183.6015625,2937,38.0,0.0
3381,183.603515625,2937,38.0,0.0
3382,183.60546875,2937,38.0,0.0
3383,183.607421875,2937,38.0,0.0
3384,183.609375,2937,38.0,0.0
3385,183.611328125,2937,38.0,0.0
3386,183.61328125,2937,38.0,0.0
3387,183.615234375,2937,38.0,0.0
3388,183.6171875,2937,38.0,0.0
3389,183.619140625,2937,38.0,0.0
3390,183.62109375,2937,38.0,0.0
3391,183.623046875,2937,38.0,0.0
3392,183.625,2938,38.0,0.0
3393,183.626953125,2938,38.0,0.0
3394,183.62890625,2938,38.0,0.0
3395,183.630859375,2938,38.0,0.0
3396,183.6328125,2938,37.0,0.0
3397,183.634765625,2938,38.0,0.0
3398,183.63671875,2938,38.0,0.0
3399,183.638671875,2938,38.0,0.0
3400,183.640625,2938,38.0,0.0
3401,183.642578125,2938,38.0,0.0
3402,183.64453125,2938,38.0,0.0
3403,183.646484375,2938,38.0,0.0
3404,183.6484375,2938,37.0,0.0
3405,183.650390625,2938,38.0,0.0
3406,183.65234375,2938,38.0,0.0
3407,183.654296875,2938,38.0,0.0
3408,183.65625,2938,38.0,0.0
3409,183.658203125,2938,38.0,0.0
3410,183.66015625,2938,38.0,0.0
3411,183.662109375,2938,38.0,0.0
3412,183.6640625,2938,38.0,0.0
3413,183.666015625,2938,38.0,0.0
3414,183.66796875,2938,38.0,0.0
3415,183.669921875,2938,38.0,0.0
3416,183.671875,2938,38.0,0.0
3417,183.673828125,2938,38.0,0.0
3418,183.67578125,2938,38.0,0.0
3419,183.677734375,2938,38.0,0.0
3420,183.6796875,2938,38.0,0.0
3421,183.681640625,2938,38.0,0.0
3422,183.68359375,2938,38.0,0.0
3423,183.685546875,2938,38.0,0.0
3424,183.6875,2939,38.0,0.0
3425,183.689453125,2939,39.0,0.0
3426,183.69140625,2939,38.0,0.0
3427,183.693359375,2939,38.0,0.0
3428,183.6953125,2939,38.0,0.0
3429,183.697265625,2939,38.0,0.0
3430,183.69921875,2939,38.0,0.0
3431,183.701171875,2939,38.0,0.0
3432,183.703125,2939,38.0,0.0
3433,183.705078125,2939,38.0,0.0
3434,183.70703125,2939,39.0,0.0
3435,183.708984375,2939,38.0,0.0
3436,183.7109375,2939,38.0,0.0
3437,183.712890625,2939,38.0,0.0
3438,183.71484375,2939,38.0,0.0
3439,183.716796875,2939,38.0,0.0
3440,183.71875,2939,38.0,0.0
3441,183.720703125,2939,39.0,0.0
3442,183.72265625,2939,38.0,0.0
3443,183.724609375,2939,38.0,0.0
3444,183.7265625,2939,38.0,0.0
3445,183.728515625,2939,38.0,0.0
3446,183.73046875,2939,38.0,0.0
3447,183.732421875,2939,38.0,0.0
3448,183.734375,2939,38.0,0.0
3449,183.736328125,2939,38.0,0.0
3450,183.73828125,2939,38.0,0.0
3451,183.740234375,2939,38.0,0.0
3452,183.7421875,2939,38.0,0.0
3453,183.744140625,2939,38.0,0.0
3454,183.74609375,2939,38.0,0.0
3455,183.748046875,2939,38.0,0.0
3456,183.75,2940,38.0,0.0
3457,183.751953125,2940,38.0,0.0
3458,183.75390625,2940,38.0,0.0
3459,183.755859375,2940,38.0,0.0
3460,183.7578125,2940,37.0,0.0
3461,183.759765625,2940,38.0,0.0
3462,183.76171875,2940,38.0,0.0
3463,183.763671875,2940,38.0,0.0
3464,183.765625,2940,38.0,0.0
3465,183.767578125,2940,38.0,0.0
3466,183.76953125,2940,38.0,0.0
3467,183.771484375,2940,38.0,0.0
3468,183.7734375,2940,38.0,0.0
3469,183.775390625,2940,38.0,0.0
3470,183.77734375,2940,38.0,0.0
3471,183.779296875,2940,38.0,0.0
3472,183.78125,2940,38.0,0.0
3473,183.783203125,2940,38.0,0.0
3474,183.78515625,2940,38.0,0.0
3475,183.787109375,2940,38.0,0.0
3476,183.7890625,2940,38.0,0.0
3477,183.791015625,2940,38.0,0.0
3478,183.79296875,2940,38.0,0.0
3479,183.794921875,2940,38.0,0.0
3480,183.796875,2940,38.0,0.0
3481,183.798828125,2940,38.0,0.0
3482,183.80078125,2940,38.0,0.0
3483,183.802734375,2940,38.0,0.0
3484,183.8046875,2940,38.0,0.0
3485,183.806640625,2940,38.0,0.0
3486,183.80859375,2940,38.0,0.0
3487,183.810546875,2940,39.0,0.0
3488,183.8125,2941,39.0,0.0
3489,183.814453125,2941,38.0,0.0
3490,183.81640625,2941,39.0,0.0
3491,183.818359375,2941,39.0,0.0
3492,183.8203125,2941,39.0,0.0
3493,183.822265625,2941,39.0,0.0
3494,183.82421875,2941,38.0,0.0
3495,183.826171875,2941,38.0,0.0
3496,183.828125,2941,38.0,0.0
3497,183.830078125,2941,38.0,0.0
3498,183.83203125,2941,38.0,0.0
3499,183.833984375,2941,37.0,0.0
3500,183.8359375,2941,37.0,0.0
3501,183.837890625,2941,38.0,0.0
3502,183.83984375,2941,38.0,0.0
3503,183.841796875,2941,38.0,0.0
3504,183.84375,2941,37.0,0.0
3505,183.845703125,2941,38.0,0.0
3506,183.84765625,2941,37.0,0.0
3507,183.849609375,2941,37.0,0.0
3508,183.8515625,2941,37.0,0.0
3509,183.853515625,2941,37.0,0.0
3510,183.85546875,2941,38.0,0.0
3511,183.857421875,2941,38.0,0.0
3512,183.859375,2941,37.0,0.0
3513,183.861328125,2941,37.0,0.0
3514,183.86328125,2941,37.0,0.0
3515,183.865234375,2941,37.0,0.0
3516,183.8671875,2941,37.0,0.0
3517,183.869140625,2941,38.0,0.0
3518,183.87109375,2941,38.0,0.0
3519,183.873046875,2941,37.0,0.0
3520,183.875,2942,37.0,0.0
3521,183.876953125,2942,37.0,0.0
3522,183.87890625,2942,37.0,0.0
3523,183.880859375,2942,38.0,0.0
3524,183.8828125,2942,37.0,0.0
3525,183.884765625,2942,37.0,0.0
3526,183.88671875,2942,38.0,0.0
3527,183.888671875,2942,37.0,0.0
3528,183.890625,2942,37.0,0.0
3529,183.892578125,2942,37.0,0.0
3530,183.89453125,2942,37.0,0.0
3531,183.896484375,2942,37.0,0.0
3532,183.8984375,2942,38.0,0.0
3533,183.900390625,2942,38.0,0.0
3534,183.90234375,2942,37.0,0.0
3535,183.904296875,2942,38.0,0.0
3536,183.90625,2942,37.0,0.0
3537,183.908203125,2942,37.0,0.0
3538,183.91015625,2942,37.0,0.0
3539,183.912109375,2942,38.0,0.0
3540,183.9140625,2942,38.0,0.0
3541,183.916015625,2942,38.0,0.0
3542,183.91796875,2942,37.0,0.0
3543,183.919921875,2942,37.0,0.0
3544,183.921875,2942,38.0,0.0
3545,183.923828125,2942,38.0,0.0
3546,183.92578125,2942,37.0,0.0
3547,183.927734375,2942,38.0,0.0
3548,183.9296875,2942,38.0,0.0
3549,183.931640625,2942,37.0,0.0
3550,183.93359375,2942,37.0,0.0
3551,183.935546875,2942,37.0,0.0
3552,183.9375,2943,37.0,0.0
3553,183.939453125,2943,38.0,0.0
3554,183.94140625,2943,37.0,0.0
3555,183.943359375,2943,37.0,0.0
3556,183.9453125,2943,38.0,0.0
3557,183.947265625,2943,38.0,0.0
3558,183.94921875,2943,37.0,0.0
3559,183.951171875,2943,37.0,0.0
3560,183.953125,2943,37.0,0.0
3561,183.955078125,2943,37.0,0.0
3562,183.95703125,2943,37.0,0.0
3563,183.958984375,2943,38.0,0.0
3564,183.9609375,2943,37.0,0.0
3565,183.962890625,2943,38.0,0.0
3566,183.96484375,2943,37.0,0.0
3567,183.966796875,2943,37.0,0.0
3568,183.96875,2943,37.0,0.0
3569,183.970703125,2943,37.0,0.0
3570,183.97265625,2943,38.0,0.0
3571,183.974609375,2943,38.0,0.0
3572,183.9765625,2943,38.0,0.0
3573,183.978515625,2943,38.0,0.0
3574,183.98046875,2943,38.0,0.0
3575,183.982421875,2943,38.0,0.0
3576,183.984375,2943,38.0,0.0
3577,183.986328125,2943,38.0,0.0
3578,183.98828125,2943,38.0,0.0
3579,183.990234375,2943,38.0,0.0
3580,183.9921875,2943,38.0,0.0
3581,183.994140625,2943,38.0,0.0
3582,183.99609375,2943,38.0,0.0
3583,183.998046875,2943,38.0,0.0
3584,184.0,2944,38.0,0.0
3585,184.001953125,2944,38.0,0.0
3586,184.00390625,2944,38.0,0.0
3587,184.005859375,2944,39.0,0.0
3588,184.0078125,2944,38.0,0.0
3589,184.009765625,2944,38.0,0.0
3590,184.01171875,2944,39.0,0.0
3591,184.013671875,2944,39.0,0.0
3592,184.015625,2944,39.0,0.0
3593,184.017578125,2944,39.0,0.0
3594,184.01953125,2944,39.0,0.0
3595,184.021484375,2944,39.0,0.0
3596,184.0234375,2944,39.0,0.0
3597,184.025390625,2944,38.0,0.0
3598,184.02734375,2944,39.0,0.0
3599,184.029296875,2944,38.0,0.0
3600,184.03125,2944,38.0,0.0
3601,184.033203125,2944,38.0,0.0
3602,184.03515625,2944,38.0,0.0
3603,184.037109375,2944,38.0,0.0
3604,184.0390625,2944,39.0,0.0
3605,184.041015625,2944,39.0,0.0
3606,184.04296875,2944,39.0,0.0
3607,184.044921875,2944,39.0,0.0
3608,184.046875,2944,38.0,0.0
3609,184.048828125,2944,39.0,0.0
3610,184.05078125,2944,39.0,0.0
3611,184.052734375,2944,39.0,0.0
3612,184.0546875,2944,39.0,0.0
3613,184.056640625,2944,39.0,0.0
3614,184.05859375,2944,39.0,0.0
3615,184.060546875,2944,39.0,0.0
3616,184.0625,2945,39.0,0.0
3617,184.064453125,2945,39.0,0.0
3618,184.06640625,2945,39.0,0.0
3619,184.068359375,2945,39.0,0.0
3620,184.0703125,2945,39.0,0.0
3621,184.072265625,2945,39.0,0.0
3622,184.07421875,2945,39.0,0.0
3623,184.076171875,2945,39.0,0.0
3624,184.078125,2945,39.0,0.0
3625,184.080078125,2945,40.0,0.0
3626,184.08203125,2945,39.0,0.0
3627,184.083984375,2945,40.0,0.0
3628,184.0859375,2945,39.0,0.0
3629,184.087890625,2945,39.0,0.0
3630,184.08984375,2945,39.0,0.0
3631,184.091796875,2945,39.0,0.0
3632,184.09375,2945,39.0,0.0
3633,184.095703125,2945,39.0,0.0
3634,184.09765625,2945,39.0,0.0
3635,184.099609375,2945,39.0,0.0
3636,184.1015625,2945,39.0,0.0
3637,184.103515625,2945,39.0,0.0
3638,184.10546875,2945,39.0,0.0
3639,184.107421875,2945,39.0,0.0
3640,184.109375,2945,39.0,0.0
3641,184.111328125,2945,39.0,0.0
3642,184.11328125,2945,38.0,0.0
3643,184.115234375,2945,38.0,0.0
3644,184.1171875,2945,39.0,0.0
3645,184.119140625,2945,38.0,0.0
3646,184.12109375,2945,38.0,0.0
3647,184.123046875,2945,39.0,0.0
3648,184.125,2946,39.0,0.0
3649,184.126953125,2946,39.0,0.0
3650,184.12890625,2946,39.0,0.0
3651,184.130859375,2946,38.0,0.0
3652,184.1328125,2946,39.0,0.0
3653,184.134765625,2946,38.0,0.0
3654,184.13671875,2946,39.0,0.0
3655,184.138671875,2946,39.0,0.0
3656,184.140625,2946,39.0,0.0
3657,184.142578125,2946,39.0,0.0
3658,184.14453125,2946,38.0,0.0
3659,184.146484375,2946,38.0,0.0
3660,184.1484375,2946,39.0,0.0
3661,184.150390625,2946,39.0,0.0
3662,184.15234375,2946,39.0,0.0
3663,184.154296875,2946,38.0,0.0
3664,184.15625,2946,38.0,0.0
3665,184.158203125,2946,39.0,0.0
3666,184.16015625,2946,39.0,0.0
3667,184.162109375,2946,38.0,0.0
3668,184.1640625,2946,38.0,0.0
3669,184.166015625,2946,38.0,0.0
3670,184.16796875,2946,38.0,0.0
3671,184.169921875,2946,38.0,0.0
3672,184.171875,2946,38.0,0.0
3673,184.173828125,2946,39.0,0.0
3674,184.17578125,2946,39.0,0.0
3675,184.177734375,2946,39.0,0.0
3676,184.1796875,2946,38.0,0.0
3677,184.181640625,2946,38.0,0.0
3678,184.18359375,2946,39.0,0.0
3679,184.185546875,2946,39.0,0.0
3680,184.1875,2947,39.0,0.0
3681,184.189453125,2947,39.0,0.0
3682,184.19140625,2947,39.0,0.0
3683,184.193359375,2947,39.0,0.0
3684,184.1953125,2947,39.0,0.0
3685,184.197265625,2947,39.0,0.0
3686,184.19921875,2947,39.0,0.0
3687,184.201171875,2947,39.0,0.0
3688,184.203125,2947,39.0,0.0
3689,184.205078125,2947,39.0,0.0
3690,184.20703125,2947,38.0,0.0
3691,184.208984375,2947,38.0,0.0
3692,184.2109375,2947,39.0,0.0
3693,184.212890625,2947,38.0,0.0
3694,184.21484375,2947,39.0,0.0
3695,184.216796875,2947,38.0,0.0
3696,184.21875,2947,39.0,0.0
3697,184.220703125,2947,39.0,0.0
3698,184.22265625,2947,39.0,0.0
3699,184.224609375,2947,39.0,0.0
3700,184.2265625,2947,39.0,0.0
3701,184.228515625,2947,38.0,0.0
3702,184.23046875,2947,38.0,0.0
3703,184.232421875,2947,38.0,0.0
3704,184.234375,2947,39.0,0.0
3705,184.236328125,2947,39.0,0.0
3706,184.23828125,2947,38.0,0.0
3707,184.240234375,2947,38.0,0.0
3708,184.2421875,2947,38.0,0.0
3709,184.244140625,2947,38.0,0.0
3710,184.24609375,2947,39.0,0.0
3711,184.248046875,2947,39.0,0.0
3712,184.25,2948,39.0,0.0
3713,184.251953125,2948,39.0,0.0
3714,184.25390625,2948,39.0,0.0
3715,184.255859375,2948,38.0,0.0
3716,184.2578125,2948,39.0,0.0
3717,184.259765625,2948,39.0,0.0
3718,184.26171875,2948,38.0,0.0
3719,184.263671875,2948,39.0,0.0
3720,184.265625,2948,39.0,0.0
3721,184.267578125,2948,39.0,0.0
3722,184.26953125,2948,38.0,0.0
3723,184.271484375,2948,39.0,0.0
3724,184.2734375,2948,39.0,0.0
3725,184.275390625,2948,39.0,0.0
3726,184.27734375,2948,39.0,0.0
3727,184.279296875,2948,38.0,0.0
3728,184.28125,2948,36.0,0.0
3729,184.283203125,2948,35.0,0.0
3730,184.28515625,2948,34.0,0.0
3731,184.287109375,2948,26.0,0.0
3732,184.2890625,2948,5.0,0.0
3733,184.291015625,2948,-43.0,0.0
3734,184.29296875,2948,-76.0,0.0
3735,184.294921875,2948,-105.0,0.0
3736,184.296875,2948,-206.0,0.0
3737,184.298828125,2948,-446.0,0.0
3738,184.30078125,2948,-789.0,0.0
3739,184.302734375,2948,-924.0,0.0
3740,184.3046875,2948,-972.0,0.0
3741,184.306640625,2948,-1322.0,0.0
3742,184.30859375,2948,-1748.0,0.0
3743,184.310546875,2948,-1867.0,0.0
3744,184.3125,2949,-1895.0,0.0
3745,184.314453125,2949,-1978.0,0.0
3746,184.31640625,2949,-2048.0,0.0
3747,184.318359375,2949,-2048.0,0.0
3748,184.3203125,2949,-2048.0,0.0
3749,184.322265625,2949,-2048.0,0.0
3750,184.32421875,2949,-2048.0,0.0
3751,184.326171875,2949,-2048.0,0.0
3752,184.328125,2949,-2048.0,0.0
3753,184.330078125,2949,-2048.0,0.0
3754,184.33203125,2949,-2048.0,0.0
3755,184.333984375,2949,-2048.0,0.0
3756,184.3359375,2949,-2048.0,0.0
3757,184.337890625,2949,-2048.0,0.0
3758,184.33984375,2949,-2048.0,0.0
3759,184.341796875,2949,-2048.0,0.0
3760,184.34375,2949,-2048.0,0.0
3761,184.345703125,2949,-2048.0,0.0
3762,184.34765625,2949,-2048.0,0.0
3763,184.349609375,2949,-2048.0,0.0
3764,184.3515625,2949,-2048.0,0.0
3765,184.353515625,2949,-2048.0,0.0
3766,184.35546875,2949,-2048.0,0.0
3767,184.357421875,2949,-2048.0,0.0
3768,184.359375,2949,-2048.0,0.0
3769,184.361328125,2949,-2048.0,0.0
3770,184.36328125,2949,-2048.0,0.0
3771,184.365234375,2949,-2038.0,0.0
3772,184.3671875,2949,-1963.0,0.0
3773,184.369140625,2949,-1893.0,0.0
3774,184.37109375,2949,-1822.0,0.0
3775,184.373046875,2949,-1755.0,0.0
3776,184.375,2950,-1690.0,0.0
3777,184.376953125,2950,-1627.0,0.0
3778,184.37890625,2950,-1566.0,0.0
3779,184.380859375,2950,-1509.0,0.0
3780,184.3828125,2950,-1452.0,0.0
3781,184.384765625,2950,-1398.0,0.0
3782,184.38671875,2950,-1347.0,0.0
3783,184.388671875,2950,-1294.0,0.0
3784,184.390625,2950,-1246.0,0.0
3785,184.392578125,2950,-1201.0,0.0
3786,184.39453125,2950,-1155.0,0.0
3787,184.396484375,2950,-1111.0,0.0
3788,184.3984375,2950,-1069.0,0.0
3789,184.400390625,2950,-1029.0,0.0
3790,184.40234375,2950,-988.0,0.0
3791,184.404296875,2950,-952.0,0.0
3792,184.40625,2950,-916.0,0.0
3793,184.408203125,2950,-882.0,0.0
3794,184.41015625,2950,-846.0,0.0
3795,184.412109375,2950,-814.0,0.0
3796,184.4140625,2950,-785.0,0.0
3797,184.416015625,2950,-754.0,0.0
3798,184.41796875,2950,-725.0,0.0
3799,184.419921875,2950,-696.0,0.0
3800,184.421875,2950,-669.0,0.0
3801,184.423828125,2950,-644.0,0.0
3802,184.42578125,2950,-618.0,0.0
3803,184.427734375,2950,-595.0,0.0
3804,184.4296875,2950,-571.0,0.0
3805,184.431640625,2950,-549.0,0.0
3806,184.43359375,2950,-526.0,0.0
3807,184.435546875,2950,-507.0,0.0
3808,184.4375,2951,-487.0,0.0
3809,184.439453125,2951,-468.0,0.0
3810,184.44140625,2951,-450.0,0.0
3811,184.443359375,2951,-433.0,0.0
3812,184.4453125,2951,-413.0,0.0
3813,184.447265625,2951,-397.0,0.0
3814,184.44921875,2951,-380.0,0.0
3815,184.451171875,2951,-365.0,0.0
3816,184.453125,2951,-353.0,0.0
3817,184.455078125,2951,-338.0,0.0
3818,184.45703125,2951,-324.0,0.0
3819,184.458984375,2951,-310.0,0.0
3820,184.4609375,2951,-297.0,0.0
3821,184.462890625,2951,-285.0,0.0
3822,184.46484375,2951,-274.0,0.0
3823,184.466796875,2951,-262.0,0.0
3824,184.46875,2951,-250.0,0.0
3825,184.470703125,2951,-241.0,0.0
3826,184.47265625,2951,-230.0,0.0
3827,184.474609375,2951,-219.0,0.0
3828,184.4765625,2951,-211.0,0.0
3829,184.478515625,2951,-201.0,0.0
3830,184.48046875,2951,-194.0,0.0
3831,184.482421875,2951,-184.0,0.0
3832,184.484375,2951,-177.0,0.0
3833,184.486328125,2951,-168.0,0.0
3834,184.48828125,2951,-161.0,0.0
3835,184.490234375,2951,-153.0,0.0
3836,184.4921875,2951,-146.0,0.0
3837,184.494140625,2951,-139.0,0.0
3838,184.49609375,2951,-133.0,0.0
3839,184.498046875,2951,-125.0,0.0
3840,184.5,2952,-120.0,0.0
3841,184.501953125,2952,-115.0,0.0
3842,184.50390625,2952,-108.0,0.0
3843,184.505859375,2952,-103.0,0.0
3844,184.5078125,2952,-99.0,0.0
3845,184.509765625,2952,-92.0,0.0
3846,184.51171875,2952,-88.0,0.0
3847,184.513671875,2952,-84.0,0.0
3848,184.515625,2952,-78.0,0.0
3849,184.517578125,2952,-74.0,0.0
3850,184.51953125,2952,-70.0,0.0
3851,184.521484375,2952,-67.0,0.0
3852,184.5234375,2952,-61.0,0.0
3853,184.525390625,2952,-58.0,0.0
3854,184.52734375,2952,-55.0,0.0
3855,184.529296875,2952,-52.0,0.0
3856,184.53125,2952,-49.0,0.0
3857,184.533203125,2952,-44.0,0.0
3858,184.53515625,2952,-41.0,0.0
3859,184.537109375,2952,-39.0,0.0
3860,184.5390625,2952,-37.0,0.0
3861,184.541015625,2952,-34.0,0.0
3862,184.54296875,2952,-29.0,0.0
3863,184.544921875,2952,-27.0,0.0
3864,184.546875,2952,-25.0,0.0
3865,184.548828125,2952,-23.0,0.0
3866,184.55078125,2952,-22.0,0.0
3867,184.552734375,2952,-19.0,0.0
3868,184.5546875,2952,-17.0,0.0
3869,184.556640625,2952,-13.0,0.0
3870,184.55859375,2952,-12.0,0.0
3871,184.560546875,2952,-10.0,0.0
3872,184.5625,2953,-8.0,0.0
3873,184.564453125,2953,-7.0,0.0
3874,184.56640625,2953,-6.0,0.0
3875,184.568359375,2953,-4.0,0.0
3876,184.5703125,2953,-2.0,0.0
3877,184.572265625,2953,-1.0,0.0
3878,184.57421875,2953,1.0,0.0
3879,184.576171875,2953,2.0,0.0
3880,184.578125,2953,3.0,0.0
3881,184.580078125,2953,7.0,0.0
3882,184.58203125,2953,52.0,0.0
3883,184.583984375,2953,241.0,0.0
3884,184.5859375,2953,632.0,0.0
3885,184.587890625,2953,1400.0,0.0
3886,184.58984375,2953,2047.0,0.0
3887,184.591796875,2953,2047.0,0.0
3888,184.59375,2953,2047.0,0.0
3889,184.595703125,2953,2047.0,0.0
3890,184.59765625,2953,2047.0,0.0
3891,184.599609375,2953,2047.0,0.0
3892,184.6015625,2953,2047.0,0.0
3893,184.603515625,2953,2047.0,0.0
3894,184.60546875,2953,2047.0,0.0
3895,184.607421875,2953,2047.0,0.0
3896,184.609375,2953,2047.0,0.0
3897,184.611328125,2953,2047.0,0.0
3898,184.61328125,2953,2047.0,0.0
3899,184.615234375,2953,2047.0,0.0
3900,184.6171875,2953,2047.0,0.0
3901,184.619140625,2953,2047.0,0.0
3902,184.62109375,2953,2047.0,0.0
3903,184.623046875,2953,2047.0,0.0
3904,184.625,2954,2047.0,0.0
3905,184.626953125,2954,2047.0,0.0
3906,184.62890625,2954,2047.0,0.0
3907,184.630859375,2954,2047.0,0.0
3908,184.6328125,2954,2047.0,0.0
3909,184.634765625,2954,2047.0,0.0
3910,184.63671875,2954,2047.0,0.0
3911,184.638671875,2954,1984.0,0.0
3912,184.640625,2954,1913.0,0.0
3913,184.642578125,2954,1846.0,0.0
3914,184.64453125,2954,1781.0,0.0
3915,184.646484375,2954,1718.0,0.0
3916,184.6484375,2954,1657.0,0.0
3917,184.650390625,2954,1600.0,0.0
3918,184.65234375,2954,1541.0,0.0
3919,184.654296875,2954,1488.0,0.0
3920,184.65625,2954,1433.0,0.0
3921,184.658203125,2954,1383.0,0.0
3922,184.66015625,2954,1334.0,0.0
3923,184.662109375,2954,1287.0,0.0
3924,184.6640625,2954,1241.0,0.0
3925,184.666015625,2954,1196.0,0.0
3926,184.66796875,2954,1156.0,0.0
3927,184.669921875,2954,1113.0,0.0
3928,184.671875,2954,1076.0,0.0
3929,184.673828125,2954,1037.0,0.0
3930,184.67578125,2954,1000.0,0.0
3931,184.677734375,2954,965.0,0.0
3932,184.6796875,2954,932.0,0.0
3933,184.681640625,2954,899.0,0.0
3934,184.68359375,2954,867.0,0.0
3935,184.685546875,2954,837.0,0.0
3936,184.6875,2955,807.0,0.0
3937,184.689453125,2955,779.0,0.0
3938,184.69140625,2955,753.0,0.0
3939,184.693359375,2955,726.0,0.0
3940,184.6953125,2955,700.0,0.0
3941,184.697265625,2955,677.0,0.0
3942,184.69921875,2955,653.0,0.0
3943,184.701171875,2955,631.0,0.0
3944,184.703125,2955,610.0,0.0
3945,184.705078125,2955,587.0,0.0
3946,184.70703125,2955,568.0,0.0
3947,184.708984375,2955,549.0,0.0
3948,184.7109375,2955,530.0,0.0
3949,184.712890625,2955,513.0,0.0
3950,184.71484375,2955,493.0,0.0
3951,184.716796875,2955,476.0,0.0
3952,184.71875,2955,460.0,0.0
3953,184.720703125,2955,445.0,0.0
3954,184.72265625,2955,432.0,0.0
3955,184.724609375,2955,418.0,0.0
3956,184.7265625,2955,403.0,0.0
3957,184.728515625,2955,390.0,0.0
3958,184.73046875,2955,376.0,0.0
3959,184.732421875,2955,364.0,0.0
3960,184.734375,2955,353.0,0.0
3961,184.736328125,2955,341.0,0.0
3962,184.73828125,2955,329.0,0.0
3963,184.740234375,2955,320.0,0.0
3964,184.7421875,2955,309.0,0.0
3965,184.744140625,2955,298.0,0.0
3966,184.74609375,2955,290.0,0.0
3967,184.748046875,2955,280.0,0.0
3968,184.75,2956,272.0,0.0
3969,184.751953125,2956,262.0,0.0
3970,184.75390625,2956,256.0,0.0
3971,184.755859375,2956,246.0,0.0
3972,184.7578125,2956,240.0,0.0
3973,184.759765625,2956,231.0,0.0
3974,184.76171875,2956,225.0,0.0
3975,184.763671875,2956,217.0,0.0
3976,184.765625,2956,212.0,0.0
3977,184.767578125,2956,203.0,0.0
3978,184.76953125,2956,198.0,0.0
3979,184.771484375,2956,193.0,0.0
3980,184.7734375,2956,186.0,0.0
3981,184.775390625,2956,182.0,0.0
3982,184.77734375,2956,177.0,0.0
3983,184.779296875,2956,170.0,0.0
3984,184.78125,2956,166.0,0.0
3985,184.783203125,2956,162.0,0.0
3986,184.78515625,2956,156.0,0.0
3987,184.787109375,2956,152.0,0.0
3988,184.7890625,2956,148.0,0.0
3989,184.791015625,2956,145.0,0.0
3990,184.79296875,2956,140.0,0.0
3991,184.794921875,2956,137.0,0.0
3992,184.796875,2956,133.0,0.0
3993,184.798828125,2956,130.0,0.0
3994,184.80078125,2956,125.0,0.0
3995,184.802734375,2956,122.0,0.0
3996,184.8046875,2956,119.0,0.0
3997,184.806640625,2956,116.0,0.0
3998,184.80859375,2956,114.0,0.0
3999,184.810546875,2956,112.0,0.0
4000,184.8125,2957,107.0,0.0
4001,184.814453125,2957,105.0,0.0
4002,184.81640625,2957,103.0,0.0
4003,184.818359375,2957,100.0,0.0
4004,184.8203125,2957,98.0,0.0
4005,184.822265625,2957,96.0,0.0
4006,184.82421875,2957,92.0,0.0
4007,184.826171875,2957,91.0,0.0
4008,184.828125,2957,90.0,0.0
4009,184.830078125,2957,87.0,0.0
4010,184.83203125,2957,86.0,0.0
4011,184.833984375,2957,84.0,0.0
4012,184.8359375,2957,83.0,0.0
4013,184.837890625,2957,81.0,0.0
4014,184.83984375,2957,80.0,0.0
4015,184.841796875,2957,76.0,0.0
4016,184.84375,2957,75.0,0.0
4017,184.845703125,2957,74.0,0.0
4018,184.84765625,2957,73.0,0.0
4019,184.849609375,2957,72.0,0.0
4020,184.8515625,2957,70.0,0.0
4021,184.853515625,2957,69.0,0.0
4022,184.85546875,2957,69.0,0.0
4023,184.857421875,2957,68.0,0.0
4024,184.859375,2957,66.0,0.0
4025,184.861328125,2957,65.0,0.0
4026,184.86328125,2957,65.0,0.0
4027,184.865234375,2957,64.0,0.0
4028,184.8671875,2957,61.0,0.0
4029,184.869140625,2957,60.0,0.0
4030,184.87109375,2957,59.0,0.0
4031,184.873046875,2957,59.0,0.0
4032,184.875,2958,58.0,0.0
4033,184.876953125,2958,57.0,0.0
4034,184.87890625,2958,57.0,0.0
4035,184.880859375,2958,56.0,0.0
4036,184.8828125,2958,55.0,0.0
4037,184.884765625,2958,55.0,0.0
4038,184.88671875,2958,54.0,0.0
4039,184.888671875,2958,53.0,33552.0
4040,184.890625,2958,53.0,0.0
4041,184.892578125,2958,53.0,0.0
4042,184.89453125,2958,52.0,0.0
4043,184.896484375,2958,51.0,0.0
4044,184.8984375,2958,51.0,0.0
4045,184.900390625,2958,50.0,0.0
4046,184.90234375,2958,50.0,0.0
4047,184.904296875,2958,50.0,0.0
4048,184.90625,2958,49.0,0.0
4049,184.908203125,2958,49.0,0.0
4050,184.91015625,2958,48.0,0.0
4051,184.912109375,2958,48.0,0.0
4052,184.9140625,2958,45.0,0.0
4053,184.916015625,2958,45.0,0.0
4054,184.91796875,2958,45.0,0.0
4055,184.919921875,2958,45.0,0.0
4056,184.921875,2958,45.0,0.0
4057,184.923828125,2958,44.0,0.0
4058,184.92578125,2958,44.0,0.0
4059,184.927734375,2958,44.0,0.0
4060,184.9296875,2958,44.0,0.0
4061,184.931640625,2958,43.0,0.0
4062,184.93359375,2958,43.0,0.0
4063,184.935546875,2958,43.0,0.0
4064,184.9375,2959,43.0,0.0
4065,184.939453125,2959,42.0,0.0
4066,184.94140625,2959,42.0,0.0
4067,184.943359375,2959,42.0,0.0
4068,184.9453125,2959,42.0,0.0
4069,184.947265625,2959,42.0,0.0
4070,184.94921875,2959,42.0,0.0
4071,184.951171875,2959,41.0,0.0
4072,184.953125,2959,41.0,0.0
4073,184.955078125,2959,41.0,0.0
4074,184.95703125,2959,40.0,0.0
4075,184.958984375,2959,41.0,0.0
4076,184.9609375,2959,40.0,0.0
4077,184.962890625,2959,40.0,0.0
4078,184.96484375,2959,40.0,0.0
4079,184.966796875,2959,40.0,0.0
4080,184.96875,2959,40.0,0.0
4081,184.970703125,2959,40.0,0.0
4082,184.97265625,2959,40.0,0.0
4083,184.974609375,2959,40.0,0.0
4084,184.9765625,2959,40.0,0.0
4085,184.978515625,2959,40.0,0.0
4086,184.98046875,2959,40.0,0.0
4087,184.982421875,2959,39.0,0.0
4088,184.984375,2959,40.0,0.0
4089,184.986328125,2959,39.0,0.0
4090,184.98828125,2959,39.0,0.0
4091,184.990234375,2959,39.0,0.0
4092,184.9921875,2959,39.0,0.0
4093,184.994140625,2959,40.0,0.0
4094,184.99609375,2959,39.0,0.0
4095,184.998046875,2959,39.0,0.0
4096,185.0,2960,39.0,0.0
4097,185.001953125,2960,38.0,0.0
4098,185.00390625,2960,38.0,0.0
4099,185.005859375,2960,38.0,0.0
4100,185.0078125,2960,38.0,0.0
4101,185.009765625,2960,38.0,0.0
4102,185.01171875,2960,38.0,0.0
4103,185.013671875,2960,38.0,0.0
4104,185.015625,2960,38.0,0.0
4105,185.017578125,2960,38.0,0.0
4106,185.01953125,2960,38.0,0.0
4107,185.021484375,2960,38.0,0.0
4108,185.0234375,2960,38.0,0.0
4109,185.025390625,2960,38.0,0.0
4110,185.02734375,2960,38.0,0.0
4111,185.029296875,2960,38.0,0.0
4112,185.03125,2960,38.0,0.0
4113,185.033203125,2960,37.0,0.0
4114,185.03515625,2960,38.0,0.0
4115,185.037109375,2960,38.0,0.0
4116,185.0390625,2960,38.0,0.0
4117,185.041015625,2960,38.0,0.0
4118,185.04296875,2960,38.0,0.0
4119,185.044921875,2960,37.0,0.0
4120,185.046875,2960,38.0,0.0
4121,185.048828125,2960,38.0,0.0
4122,185.05078125,2960,38.0,0.0
4123,185.052734375,2960,38.0,0.0
4124,185.0546875,2960,38.0,0.0
4125,185.056640625,2960,37.0,0.0
4126,185.05859375,2960,38.0,0.0
4127,185.060546875,2960,38.0,0.0
4128,185.0625,2961,38.0,0.0
4129,185.064453125,2961,38.0,0.0
4130,185.06640625,2961,38.0,0.0
4131,185.068359375,2961,38.0,0.0
4132,185.0703125,2961,38.0,0.0
4133,185.072265625,2961,37.0,0.0
4134,185.07421875,2961,38.0,0.0
4135,185.076171875,2961,37.0,0.0
4136,185.078125,2961,38.0,0.0
4137,185.080078125,2961,38.0,0.0
4138,185.08203125,2961,37.0,0.0
4139,185.083984375,2961,37.0,0.0
4140,185.0859375,2961,37.0,0.0
4141,185.087890625,2961,37.0,0.0
4142,185.08984375,2961,37.0,0.0
4143,185.091796875,2961,37.0,0.0
4144,185.09375,2961,37.0,0.0
4145,185.095703125,2961,37.0,0.0
4146,185.09765625,2961,37.0,0.0
4147,185.099609375,2961,37.0,0.0
4148,185.1015625,2961,37.0,0.0
4149,185.103515625,2961,37.0,0.0
4150,185.10546875,2961,38.0,0.0
4151,185.107421875,2961,37.0,0.0
4152,185.109375,2961,37.0,0.0
4153,185.111328125,2961,37.0,0.0
4154,185.11328125,2961,37.0,0.0
4155,185.115234375,2961,38.0,0.0
4156,185.1171875,2961,37.0,0.0
4157,185.119140625,2961,37.0,0.0
4158,185.12109375,2961,38.0,0.0
4159,185.123046875,2961,38.0,0.0
4160,185.125,2962,37.0,0.0
4161,185.126953125,2962,37.0,0.0
4162,185.12890625,2962,37.0,0.0
4163,185.130859375,2962,37.0,0.0
4164,185.1328125,2962,37.0,0.0
4165,185.134765625,2962,37.0,0.0
4166,185.13671875,2962,38.0,0.0
4167,185.138671875,2962,37.0,0.0
4168,185.140625,2962,37.0,0.0
4169,185.142578125,2962,37.0,0.0
4170,185.14453125,2962,37.0,0.0
4171,185.146484375,2962,37.0,0.0
4172,185.1484375,2962,37.0,0.0
4173,185.150390625,2962,37.0,0.0
4174,185.15234375,2962,37.0,0.0
4175,185.154296875,2962,37.0,0.0
4176,185.15625,2962,37.0,0.0
4177,185.158203125,2962,37.0,0.0
4178,185.16015625,2962,37.0,0.0
4179,185.162109375,2962,37.0,0.0
4180,185.1640625,2962,37.0,0.0
4181,185.166015625,2962,37.0,0.0
4182,185.16796875,2962,37.0,0.0
4183,185.169921875,2962,37.0,0.0
4184,185.171875,2962,37.0,0.0
4185,185.173828125,2962,37.0,0.0
4186,185.17578125,2962,37.0,0.0
4187,185.177734375,2962,37.0,0.0
4188,185.1796875,2962,37.0,0.0
4189,185.181640625,2962,37.0,0.0
4190,185.18359375,2962,37.0,0.0
4191,185.185546875,2962,37.0,0.0
4192,185.1875,2963,37.0,0.0
4193,185.189453125,2963,37.0,0.0
4194,185.19140625,2963,37.0,0.0
4195,185.193359375,2963,37.0,0.0
4196,185.1953125,2963,37.0,0.0
4197,185.197265625,2963,37.0,0.0
4198,185.19921875,2963,37.0,0.0
4199,185.201171875,2963,37.0,0.0
4200,185.203125,2963,37.0,0.0
4201,185.205078125,2963,37.0,0.0
4202,185.20703125,2963,37.0,0.0
4203,185.208984375,2963,38.0,0.0
4204,185.2109375,2963,38.0,0.0
4205,185.212890625,2963,37.0,0.0
4206,185.21484375,2963,37.0,0.0
4207,185.216796875,2963,37.0,0.0
4208,185.21875,2963,38.0,0.0
4209,185.220703125,2963,37.0,0.0
4210,185.22265625,2963,37.0,0.0
4211,185.224609375,2963,38.0,0.0
4212,185.2265625,2963,38.0,0.0
4213,185.228515625,2963,37.0,0.0
4214,185.23046875,2963,37.0,0.0
4215,185.232421875,2963,37.0,0.0
4216,185.234375,2963,37.0,0.0
4217,185.236328125,2963,37.0,0.0
4218,185.23828125,2963,37.0,0.0
4219,185.240234375,2963,37.0,0.0
4220,185.2421875,2963,37.0,0.0
4221,185.244140625,2963,38.0,0.0
4222,185.24609375,2963,37.0,0.0
4223,185.248046875,2963,37.0,0.0
4224,185.25,2964,38.0,0.0
4225,185.251953125,2964,38.0,0.0
4226,185.25390625,2964,38.0,0.0
4227,185.255859375,2964,37.0,0.0
4228,185.2578125,2964,37.0,0.0
4229,185.259765625,2964,37.0,0.0
4230,185.26171875,2964,37.0,0.0
4231,185.263671875,2964,37.0,0.0
4232,185.265625,2964,38.0,0.0
4233,185.267578125,2964,38.0,0.0
4234,185.26953125,2964,38.0,0.0
4235,185.271484375,2964,37.0,0.0
4236,185.2734375,2964,37.0,0.0
4237,185.275390625,2964,37.0,0.0
4238,185.27734375,2964,37.0,0.0
4239,185.279296875,2964,38.0,0.0
4240,185.28125,2964,38.0,0.0
4241,185.283203125,2964,38.0,0.0
4242,185.28515625,2964,37.0,0.0
4243,185.287109375,2964,37.0,0.0
4244,185.2890625,2964,37.0,0.0
4245,185.291015625,2964,37.0,0.0
4246,185.29296875,2964,37.0,0.0
4247,185.294921875,2964,37.0,0.0
4248,185.296875,2964,37.0,0.0
4249,185.298828125,2964,38.0,0.0
4250,185.30078125,2964,38.0,0.0
4251,185.302734375,2964,38.0,0.0
4252,185.3046875,2964,38.0,0.0
4253,185.306640625,2964,38.0,0.0
4254,185.30859375,2964,37.0,0.0
4255,185.310546875,2964,38.0,0.0
4256,185.3125,2965,37.0,0.0
4257,185.314453125,2965,37.0,0.0
4258,185.31640625,2965,38.0,0.0
4259,185.318359375,2965,37.0,0.0
4260,185.3203125,2965,37.0,0.0
4261,185.322265625,2965,37.0,0.0
4262,185.32421875,2965,38.0,0.0
4263,185.326171875,2965,37.0,0.0
4264,185.328125,2965,37.0,0.0
4265,185.330078125,2965,37.0,0.0
4266,185.33203125,2965,38.0,0.0
4267,185.333984375,2965,37.0,0.0
4268,185.3359375,2965,37.0,0.0
4269,185.337890625,2965,37.0,0.0
4270,185.33984375,2965,37.0,0.0
4271,185.341796875,2965,38.0,0.0
4272,185.34375,2965,38.0,0.0
4273,185.345703125,2965,38.0,0.0
4274,185.34765625,2965,38.0,0.0
4275,185.349609375,2965,38.0,0.0
4276,185.3515625,2965,37.0,0.0
4277,185.353515625,2965,37.0,0.0
4278,185.35546875,2965,37.0,0.0
4279,185.357421875,2965,37.0,0.0
4280,185.359375,2965,37.0,0.0
4281,185.361328125,2965,37.0,0.0
4282,185.36328125,2965,37.0,0.0
4283,185.365234375,2965,37.0,0.0
4284,185.3671875,2965,37.0,0.0
4285,185.369140625,2965,37.0,0.0
4286,185.37109375,2965,37.0,0.0
4287,185.373046875,2965,37.0,0.0
4288,185.375,2966,37.0,0.0
4289,185.376953125,2966,37.0,0.0
4290,185.37890625,2966,38.0,0.0
4291,185.380859375,2966,37.0,0.0
4292,185.3828125,2966,37.0,0.0
4293,185.384765625,2966,38.0,0.0
4294,185.38671875,2966,37.0,33553.0
4295,185.388671875,2966,37.0,33554.0
4296,185.390625,2966,37.0,0.0
4297,185.392578125,2966,37.0,0.0
4298,185.39453125,2966,38.0,0.0
4299,185.396484375,2966,38.0,0.0
4300,185.3984375,2966,38.0,0.0
4301,185.400390625,2966,38.0,0.0
4302,185.40234375,2966,38.0,0.0
4303,185.404296875,2966,38.0,0.0
4304,185.40625,2966,38.0,0.0
4305,185.408203125,2966,37.0,0.0
4306,185.41015625,2966,38.0,0.0
4307,185.412109375,2966,38.0,0.0
4308,185.4140625,2966,38.0,0.0
4309,185.416015625,2966,38.0,0.0
4310,185.41796875,2966,38.0,0.0
4311,185.419921875,2966,38.0,0.0
4312,185.421875,2966,38.0,0.0
4313,185.423828125,2966,38.0,0.0
4314,185.42578125,2966,38.0,0.0
4315,185.427734375,2966,38.0,0.0
4316,185.4296875,2966,38.0,0.0
4317,185.431640625,2966,38.0,0.0
4318,185.43359375,2966,38.0,0.0
4319,185.435546875,2966,37.0,0.0
4320,185.4375,2967,38.0,0.0
4321,185.439453125,2967,38.0,0.0
4322,185.44140625,2967,38.0,0.0
4323,185.443359375,2967,38.0,0.0
4324,185.4453125,2967,38.0,0.0
4325,185.447265625,2967,39.0,0.0
4326,185.44921875,2967,38.0,0.0
4327,185.451171875,2967,38.0,0.0
4328,185.453125,2967,38.0,0.0
4329,185.455078125,2967,38.0,0.0
4330,185.45703125,2967,38.0,0.0
4331,185.458984375,2967,38.0,0.0
4332,185.4609375,2967,39.0,0.0
4333,185.462890625,2967,38.0,0.0
4334,185.46484375,2967,38.0,0.0
4335,185.466796875,2967,38.0,0.0
4336,185.46875,2967,38.0,0.0
4337,185.470703125,2967,38.0,0.0
4338,185.47265625,2967,38.0,0.0
4339,185.474609375,2967,38.0,0.0
4340,185.4765625,2967,38.0,0.0
4341,185.478515625,2967,38.0,0.0
4342,185.48046875,2967,38.0,0.0
4343,185.482421875,2967,39.0,0.0
4344,185.484375,2967,38.0,0.0
4345,185.486328125,2967,38.0,0.0
4346,185.48828125,2967,38.0,0.0
4347,185.490234375,2967,38.0,0.0
4348,185.4921875,2967,38.0,0.0
4349,185.494140625,2967,38.0,0.0
4350,185.49609375,2967,38.0,0.0
4351,185.498046875,2967,38.0,0.0
4352,185.5,2968,38.0,0.0
4353,185.501953125,2968,38.0,0.0
4354,185.50390625,2968,38.0,0.0
4355,185.505859375,2968,38.0,0.0
4356,185.5078125,2968,38.0,0.0
4357,185.509765625,2968,39.0,0.0
4358,185.51171875,2968,39.0,0.0
4359,185.513671875,2968,39.0,0.0
4360,185.515625,2968,39.0,0.0
4361,185.517578125,2968,39.0,0.0
4362,185.51953125,2968,39.0,0.0
4363,185.521484375,2968,39.0,0.0
4364,185.5234375,2968,39.0,0.0
4365,185.525390625,2968,39.0,0.0
4366,185.52734375,2968,39.0,0.0
4367,185.529296875,2968,39.0,0.0
4368,185.53125,2968,39.0,0.0
4369,185.533203125,2968,39.0,0.0
4370,185.53515625,2968,38.0,0.0
4371,185.537109375,2968,39.0,0.0
4372,185.5390625,2968,39.0,0.0
4373,185.541015625,2968,39.0,0.0
4374,185.54296875,2968,39.0,0.0
4375,185.544921875,2968,39.0,0.0
4376,185.546875,2968,39.0,0.0
4377,185.548828125,2968,39.0,0.0
4378,185.55078125,2968,39.0,0.0
4379,185.552734375,2968,39.0,0.0
4380,185.5546875,2968,39.0,0.0
4381,185.556640625,2968,39.0,0.0
4382,185.55859375,2968,39.0,0.0
4383,185.560546875,2968,39.0,0.0
4384,185.5625,2969,39.0,0.0
4385,185.564453125,2969,39.0,0.0
4386,185.56640625,2969,39.0,0.0
4387,185.568359375,2969,39.0,0.0
4388,185.5703125,2969,39.0,0.0
4389,185.572265625,2969,39.0,0.0
4390,185.57421875,2969,39.0,0.0
4391,185.576171875,2969,38.0,0.0
4392,185.578125,2969,39.0,0.0
4393,185.580078125,2969,39.0,0.0
4394,185.58203125,2969,39.0,0.0
4395,185.583984375,2969,39.0,0.0
4396,185.5859375,2969,38.0,0.0
4397,185.587890625,2969,39.0,0.0
4398,185.58984375,2969,38.0,0.0
4399,185.591796875,2969,39.0,0.0
4400,185.59375,2969,39.0,0.0
4401,185.595703125,2969,38.0,0.0
4402,185.59765625,2969,39.0,0.0
4403,185.599609375,2969,39.0,0.0
4404,185.6015625,2969,39.0,0.0
4405,185.603515625,2969,39.0,0.0
4406,185.60546875,2969,39.0,0.0
4407,185.607421875,2969,39.0,0.0
4408,185.609375,2969,39.0,0.0
4409,185.611328125,2969,39.0,0.0
4410,185.61328125,2969,39.0,0.0
4411,185.615234375,2969,39.0,0.0
4412,185.6171875,2969,38.0,0.0
4413,185.619140625,2969,39.0,0.0
4414,185.62109375,2969,38.0,0.0
4415,185.623046875,2969,38.0,0.0
4416,185.625,2970,38.0,0.0
4417,185.626953125,2970,39.0,0.0
4418,185.62890625,2970,39.0,0.0
4419,185.630859375,2970,38.0,0.0
4420,185.6328125,2970,39.0,0.0
4421,185.634765625,2970,39.0,0.0
4422,185.63671875,2970,38.0,0.0
4423,185.638671875,2970,38.0,0.0
4424,185.640625,2970,38.0,0.0
4425,185.642578125,2970,38.0,0.0
4426,185.64453125,2970,38.0,0.0
4427,185.646484375,2970,38.0,0.0
4428,185.6484375,2970,38.0,0.0
4429,185.650390625,2970,38.0,0.0
4430,185.65234375,2970,37.0,0.0
4431,185.654296875,2970,38.0,0.0
4432,185.65625,2970,37.0,0.0
4433,185.658203125,2970,36.0,0.0
4434,185.66015625,2970,36.0,0.0
4435,185.662109375,2970,36.0,0.0
4436,185.6640625,2970,37.0,0.0
4437,185.666015625,2970,36.0,0.0
4438,185.66796875,2970,37.0,0.0
4439,185.669921875,2970,37.0,0.0
4440,185.671875,2970,37.0,0.0
4441,185.673828125,2970,37.0,0.0
4442,185.67578125,2970,38.0,0.0
4443,185.677734375,2970,38.0,0.0
4444,185.6796875,2970,38.0,0.0
4445,185.681640625,2970,38.0,0.0
4446,185.68359375,2970,38.0,0.0
4447,185.685546875,2970,38.0,0.0
4448,185.6875,2971,38.0,0.0
4449,185.689453125,2971,39.0,0.0
4450,185.69140625,2971,39.0,0.0
4451,185.693359375,2971,39.0,0.0
4452,185.6953125,2971,39.0,0.0
4453,185.697265625,2971,39.0,0.0
4454,185.69921875,2971,39.0,0.0
4455,185.701171875,2971,40.0,0.0
4456,185.703125,2971,40.0,0.0
4457,185.705078125,2971,40.0,0.0
4458,185.70703125,2971,40.0,0.0
4459,185.708984375,2971,40.0,0.0
4460,185.7109375,2971,40.0,0.0
4461,185.712890625,2971,40.0,0.0
4462,185.71484375,2971,40.0,0.0
4463,185.716796875,2971,40.0,0.0
4464,185.71875,2971,41.0,0.0
4465,185.720703125,2971,40.0,0.0
4466,185.72265625,2971,40.0,0.0
4467,185.724609375,2971,40.0,0.0
4468,185.7265625,2971,40.0,0.0
4469,185.728515625,2971,40.0,0.0
4470,185.73046875,2971,40.0,0.0
4471,185.732421875,2971,40.0,0.0
4472,185.734375,2971,40.0,0.0
4473,185.736328125,2971,40.0,0.0
4474,185.73828125,2971,40.0,0.0
4475,185.740234375,2971,40.0,0.0
4476,185.7421875,2971,40.0,0.0
4477,185.744140625,2971,40.0,0.0
4478,185.74609375,2971,40.0,0.0
4479,185.748046875,2971,40.0,0.0
4480,185.75,2972,40.0,0.0
4481,185.751953125,2972,40.0,0.0
4482,185.75390625,2972,40.0,0.0
4483,185.755859375,2972,40.0,0.0
4484,185.7578125,2972,39.0,0.0
4485,185.759765625,2972,40.0,0.0
4486,185.76171875,2972,39.0,0.0
4487,185.763671875,2972,39.0,0.0
4488,185.765625,2972,39.0,0.0
4489,185.767578125,2972,39.0,0.0
4490,185.76953125,2972,39.0,0.0
4491,185.771484375,2972,39.0,0.0
4492,185.7734375,2972,39.0,0.0
4493,185.775390625,2972,39.0,0.0
4494,185.77734375,2972,39.0,0.0
4495,185.779296875,2972,39.0,0.0
4496,185.78125,2972,39.0,0.0
4497,185.783203125,2972,39.0,0.0
4498,185.78515625,2972,39.0,0.0
4499,185.787109375,2972,39.0,0.0
4500,185.7890625,2972,39.0,0.0
4501,185.791015625,2972,39.0,0.0
4502,185.79296875,2972,39.0,0.0
4503,185.794921875,2972,39.0,0.0
4504,185.796875,2972,39.0,0.0
4505,185.798828125,2972,39.0,0.0
4506,185.80078125,2972,39.0,0.0
4507,185.802734375,2972,39.0,0.0
4508,185.8046875,2972,38.0,0.0
4509,185.806640625,2972,39.0,0.0
4510,185.80859375,2972,39.0,0.0
4511,185.810546875,2972,39.0,0.0
4512,185.8125,2973,39.0,0.0
4513,185.814453125,2973,39.0,0.0
4514,185.81640625,2973,39.0,0.0
4515,185.818359375,2973,39.0,0.0
4516,185.8203125,2973,39.0,0.0
4517,185.822265625,2973,39.0,0.0
4518,185.82421875,2973,39.0,0.0
4519,185.826171875,2973,39.0,0.0
4520,185.828125,2973,39.0,0.0
4521,185.830078125,2973,39.0,0.0
4522,185.83203125,2973,39.0,0.0
4523,185.833984375,2973,39.0,0.0
4524,185.8359375,2973,39.0,0.0
4525,185.837890625,2973,39.0,0.0
4526,185.83984375,2973,39.0,0.0
4527,185.841796875,2973,39.0,0.0
4528,185.84375,2973,38.0,0.0
4529,185.845703125,2973,38.0,0.0
4530,185.84765625,2973,39.0,0.0
4531,185.849609375,2973,39.0,0.0
4532,185.8515625,2973,39.0,0.0
4533,185.853515625,2973,39.0,0.0
4534,185.85546875,2973,39.0,0.0
4535,185.857421875,2973,39.0,0.0
4536,185.859375,2973,39.0,0.0
4537,185.861328125,2973,39.0,0.0
4538,185.86328125,2973,39.0,0.0
4539,185.865234375,2973,39.0,0.0
4540,185.8671875,2973,38.0,0.0
4541,185.869140625,2973,39.0,0.0
4542,185.87109375,2973,39.0,0.0
4543,185.873046875,2973,39.0,0.0
4544,185.875,2974,39.0,0.0
4545,185.876953125,2974,39.0,0.0
4546,185.87890625,2974,39.0,0.0
4547,185.880859375,2974,39.0,0.0
4548,185.8828125,2974,40.0,0.0
4549,185.884765625,2974,39.0,0.0
4550,185.88671875,2974,38.0,0.0
4551,185.888671875,2974,39.0,0.0
4552,185.890625,2974,39.0,0.0
4553,185.892578125,2974,39.0,0.0
4554,185.89453125,2974,39.0,0.0
4555,185.896484375,2974,39.0,0.0
4556,185.8984375,2974,39.0,0.0
4557,185.900390625,2974,39.0,0.0
4558,185.90234375,2974,39.0,0.0
4559,185.904296875,2974,39.0,0.0
4560,185.90625,2974,39.0,0.0
4561,185.908203125,2974,39.0,0.0
4562,185.91015625,2974,39.0,0.0
4563,185.912109375,2974,38.0,0.0
4564,185.9140625,2974,38.0,0.0
4565,185.916015625,2974,39.0,0.0
4566,185.91796875,2974,39.0,0.0
4567,185.919921875,2974,39.0,0.0
4568,185.921875,2974,39.0,0.0
4569,185.923828125,2974,39.0,0.0
4570,185.92578125,2974,38.0,0.0
4571,185.927734375,2974,38.0,0.0
4572,185.9296875,2974,38.0,0.0
4573,185.931640625,2974,39.0,0.0
4574,185.93359375,2974,39.0,0.0
4575,185.935546875,2974,38.0,0.0
4576,185.9375,2975,39.0,0.0
4577,185.939453125,2975,39.0,0.0
4578,185.94140625,2975,39.0,0.0
4579,185.943359375,2975,38.0,0.0
4580,185.9453125,2975,38.0,0.0
4581,185.947265625,2975,38.0,0.0
4582,185.94921875,2975,39.0,0.0
4583,185.951171875,2975,39.0,0.0
4584,185.953125,2975,38.0,0.0
4585,185.955078125,2975,39.0,0.0
4586,185.95703125,2975,39.0,0.0
4587,185.958984375,2975,39.0,0.0
4588,185.9609375,2975,39.0,0.0
4589,185.962890625,2975,38.0,0.0
4590,185.96484375,2975,38.0,0.0
4591,185.966796875,2975,38.0,0.0
4592,185.96875,2975,38.0,0.0
4593,185.970703125,2975,38.0,0.0
4594,185.97265625,2975,38.0,0.0
4595,185.974609375,2975,38.0,0.0
4596,185.9765625,2975,39.0,0.0
4597,185.978515625,2975,39.0,0.0
4598,185.98046875,2975,39.0,0.0
4599,185.982421875,2975,39.0,0.0
4600,185.984375,2975,38.0,0.0
4601,185.986328125,2975,39.0,0.0
4602,185.98828125,2975,39.0,0.0
4603,185.990234375,2975,38.0,0.0
4604,185.9921875,2975,39.0,0.0
4605,185.994140625,2975,38.0,0.0
4606,185.99609375,2975,39.0,0.0
4607,185.998046875,2975,39.0,0.0
4608,186.0,2976,38.0,0.0
4609,186.001953125,2976,39.0,0.0
4610,186.00390625,2976,39.0,0.0
4611,186.005859375,2976,39.0,0.0
4612,186.0078125,2976,39.0,0.0
4613,186.009765625,2976,39.0,0.0
4614,186.01171875,2976,39.0,0.0
4615,186.013671875,2976,38.0,0.0
4616,186.015625,2976,39.0,0.0
4617,186.017578125,2976,38.0,0.0
4618,186.01953125,2976,38.0,0.0
4619,186.021484375,2976,38.0,0.0
4620,186.0234375,2976,38.0,0.0
4621,186.025390625,2976,38.0,0.0
4622,186.02734375,2976,38.0,0.0
4623,186.029296875,2976,38.0,0.0
4624,186.03125,2976,38.0,0.0
4625,186.033203125,2976,38.0,0.0
4626,186.03515625,2976,38.0,0.0
4627,186.037109375,2976,37.0,0.0
4628,186.0390625,2976,38.0,0.0
4629,186.041015625,2976,38.0,0.0
4630,186.04296875,2976,38.0,0.0
4631,186.044921875,2976,38.0,0.0
4632,186.046875,2976,38.0,0.0
4633,186.048828125,2976,38.0,0.0
4634,186.05078125,2976,38.0,0.0
4635,186.052734375,2976,38.0,0.0
4636,186.0546875,2976,38.0,0.0
4637,186.056640625,2976,38.0,0.0
4638,186.05859375,2976,37.0,0.0
4639,186.060546875,2976,37.0,0.0
4640,186.0625,2977,37.0,0.0
4641,186.064453125,2977,37.0,0.0
4642,186.06640625,2977,36.0,0.0
4643,186.068359375,2977,35.0,0.0
4644,186.0703125,2977,36.0,0.0
4645,186.072265625,2977,38.0,0.0
4646,186.07421875,2977,38.0,0.0
4647,186.076171875,2977,36.0,0.0
4648,186.078125,2977,36.0,0.0
4649,186.080078125,2977,35.0,0.0
4650,186.08203125,2977,35.0,0.0
4651,186.083984375,2977,34.0,0.0
4652,186.0859375,2977,35.0,0.0
4653,186.087890625,2977,36.0,0.0
4654,186.08984375,2977,37.0,0.0
4655,186.091796875,2977,37.0,0.0
4656,186.09375,2977,36.0,0.0
4657,186.095703125,2977,36.0,0.0
4658,186.09765625,2977,37.0,0.0
4659,186.099609375,2977,38.0,0.0
4660,186.1015625,2977,37.0,0.0
4661,186.103515625,2977,36.0,0.0
4662,186.10546875,2977,35.0,0.0
4663,186.107421875,2977,34.0,0.0
4664,186.109375,2977,35.0,0.0
4665,186.111328125,2977,37.0,0.0
4666,186.11328125,2977,38.0,0.0
4667,186.115234375,2977,38.0,0.0
4668,186.1171875,2977,36.0,0.0
4669,186.119140625,2977,37.0,0.0
4670,186.12109375,2977,37.0,0.0
4671,186.123046875,2977,34.0,0.0
4672,186.125,2978,35.0,0.0
4673,186.126953125,2978,38.0,0.0
4674,186.12890625,2978,39.0,0.0
4675,186.130859375,2978,36.0,0.0
4676,186.1328125,2978,35.0,0.0
4677,186.134765625,2978,37.0,0.0
4678,186.13671875,2978,38.0,0.0
4679,186.138671875,2978,37.0,0.0
4680,186.140625,2978,32.0,0.0
4681,186.142578125,2978,29.0,0.0
4682,186.14453125,2978,29.0,0.0
4683,186.146484375,2978,28.0,0.0
4684,186.1484375,2978,27.0,0.0
4685,186.150390625,2978,28.0,0.0
4686,186.15234375,2978,33.0,0.0
4687,186.154296875,2978,34.0,0.0
4688,186.15625,2978,34.0,0.0
4689,186.158203125,2978,33.0,0.0
4690,186.16015625,2978,34.0,0.0
4691,186.162109375,2978,36.0,0.0
4692,186.1640625,2978,34.0,0.0
4693,186.166015625,2978,26.0,0.0
4694,186.16796875,2978,21.0,0.0
4695,186.169921875,2978,21.0,0.0
4696,186.171875,2978,27.0,0.0
4697,186.173828125,2978,33.0,0.0
4698,186.17578125,2978,29.0,0.0
4699,186.177734375,2978,28.0,0.0
4700,186.1796875,2978,29.0,0.0
4701,186.181640625,2978,34.0,0.0
4702,186.18359375,2978,36.0,0.0
4703,186.185546875,2978,33.0,0.0
4704,186.1875,2979,25.0,0.0
4705,186.189453125,2979,26.0,0.0
4706,186.19140625,2979,32.0,0.0
4707,186.193359375,2979,33.0,0.0
4708,186.1953125,2979,28.0,0.0
4709,186.197265625,2979,26.0,0.0
4710,186.19921875,2979,25.0,0.0
4711,186.201171875,2979,26.0,0.0
4712,186.203125,2979,34.0,0.0
4713,186.205078125,2979,34.0,0.0
4714,186.20703125,2979,28.0,0.0
4715,186.208984375,2979,19.0,0.0
