Time:512Hz,Epoch,Electrode,Event Id,Event Date,Event Duration
0.0000000000,0,11.0000000000,,,
0.0019531250,0,-4.0000000000,,,
0.0039062500,0,-27.0000000000,,,
0.0058593750,0,-40.0000000000,,,
0.0078125000,0,-43.0000000000,,,
0.0097656250,0,-53.0000000000,,,
0.0117187500,0,-84.0000000000,,,
0.0136718750,0,-87.0000000000,,,
0.0156250000,0,-51.0000000000,,,
0.0175781250,0,-50.0000000000,,,
0.0195312500,0,-91.0000000000,,,
0.0214843750,0,-91.0000000000,,,
0.0234375000,0,-58.0000000000,,,
0.0253906250,0,-33.0000000000,,,
0.0273437500,0,-61.0000000000,,,
0.0292968750,0,-103.0000000000,,,
0.0312500000,0,-89.0000000000,,,
0.0332031250,0,-49.0000000000,,,
0.0351562500,0,-14.0000000000,,,
0.0371093750,0,-7.0000000000,,,
0.0390625000,0,-23.0000000000,,,
0.0410156250,0,-10.0000000000,,,
0.0429687500,0,35.0000000000,,,
0.0449218750,0,72.0000000000,,,
0.0468750000,0,82.0000000000,,,
0.0488281250,0,68.0000000000,,,
0.0507812500,0,74.0000000000,,,
0.0527343750,0,86.0000000000,,,
0.0546875000,0,83.0000000000,,,
0.0566406250,0,91.0000000000,,,
0.0585937500,0,73.0000000000,,,
0.0605468750,0,65.0000000000,,,
0.0625000000,1,67.0000000000,,,
0.0644531250,1,56.0000000000,,,
0.0664062500,1,57.0000000000,,,
0.0683593750,1,75.0000000000,,,
0.0703125000,1,102.0000000000,,,
0.0722656250,1,108.0000000000,,,
0.0742187500,1,113.0000000000,,,
0.0761718750,1,106.0000000000,,,
0.0781250000,1,124.0000000000,,,
0.0800781250,1,152.0000000000,,,
0.0820312500,1,148.0000000000,,,
0.0839843750,1,145.0000000000,,,
0.0859375000,1,166.0000000000,,,
0.0878906250,1,192.0000000000,,,
0.0898437500,1,180.0000000000,,,
0.0917968750,1,149.0000000000,,,
0.0937500000,1,144.0000000000,,,
0.0957031250,1,168.0000000000,,,
0.0976562500,1,201.0000000000,,,
0.0996093750,1,203.0000000000,,,
0.1015625000,1,181.0000000000,,,
0.1035156250,1,178.0000000000,,,
0.1054687500,1,199.0000000000,,,
0.1074218750,1,242.0000000000,,,
0.1093750000,1,241.0000000000,,,
0.1113281250,1,234.0000000000,,,
0.1132812500,1,216.0000000000,,,
0.1152343750,1,180.0000000000,,,
0.1171875000,1,183.0000000000,,,
0.1191406250,1,218.0000000000,,,
0.1210937500,1,242.0000000000,,,
0.1230468750,1,219.0000000000,,,
0.1250000000,2,194.0000000000,,,
0.1269531250,2,178.0000000000,,,
0.1289062500,2,172.0000000000,,,
0.1308593750,2,166.0000000000,,,
0.1328125000,2,169.0000000000,,,
0.1347656250,2,179.0000000000,,,
0.1367187500,2,189.0000000000,,,
0.1386718750,2,213.0000000000,,,
0.1406250000,2,202.0000000000,,,
0.1425781250,2,164.0000000000,,,
0.1445312500,2,132.0000000000,,,
0.1464843750,2,152.0000000000,,,
0.1484375000,2,202.0000000000,,,
0.1503906250,2,216.0000000000,,,
0.1523437500,2,176.0000000000,,,
0.1542968750,2,160.0000000000,,,
0.1562500000,2,186.0000000000,,,
0.1582031250,2,204.0000000000,,,
0.1601562500,2,212.0000000000,,,
0.1621093750,2,200.0000000000,,,
0.1640625000,2,155.0000000000,,,
0.1660156250,2,135.0000000000,,,
0.1679687500,2,137.0000000000,,,
0.1699218750,2,144.0000000000,,,
0.1718750000,2,164.0000000000,,,
0.1738281250,2,166.0000000000,,,
0.1757812500,2,156.0000000000,,,
0.1777343750,2,137.0000000000,,,
0.1796875000,2,99.0000000000,,,
0.1816406250,2,91.0000000000,,,
0.1835937500,2,138.0000000000,,,
0.1855468750,2,157.0000000000,,,
0.1875000000,3,133.0000000000,,,
0.1894531250,3,118.0000000000,,,
0.1914062500,3,133.0000000000,,,
0.1933593750,3,156.0000000000,,,
0.1953125000,3,145.0000000000,,,
0.1972656250,3,119.0000000000,,,
0.1992187500,3,116.0000000000,,,
0.2011718750,3,128.0000000000,,,
0.2031250000,3,141.0000000000,,,
0.2050781250,3,149.0000000000,,,
0.2070312500,3,120.0000000000,,,
0.2089843750,3,82.0000000000,,,
0.2109375000,3,69.0000000000,,,
0.2128906250,3,72.0000000000,,,
0.2148437500,3,81.0000000000,,,
0.2167968750,3,58.0000000000,,,
0.2187500000,3,18.0000000000,,,
0.2207031250,3,9.0000000000,,,
0.2226562500,3,16.0000000000,,,
0.2246093750,3,26.0000000000,,,
0.2265625000,3,28.0000000000,,,
0.2285156250,3,25.0000000000,,,
0.2304687500,3,36.0000000000,,,
0.2324218750,3,36.0000000000,,,
0.2343750000,3,39.0000000000,,,
0.2363281250,3,35.0000000000,,,
0.2382812500,3,11.0000000000,,,
0.2402343750,3,-13.0000000000,,,
0.2421875000,3,-34.0000000000,,,
0.2441406250,3,-39.0000000000,,,
0.2460937500,3,-18.0000000000,,,
0.2480468750,3,5.0000000000,,,
0.2500000000,4,21.0000000000,,,
0.2519531250,4,19.0000000000,,,
0.2539062500,4,-6.0000000000,,,
0.2558593750,4,-4.0000000000,,,
0.2578125000,4,10.0000000000,,,
0.2597656250,4,19.0000000000,,,
0.2617187500,4,26.0000000000,,,
0.2636718750,4,28.0000000000,,,
0.2656250000,4,10.0000000000,,,
0.2675781250,4,-25.0000000000,,,
0.2695312500,4,-36.0000000000,,,
0.2714843750,4,-11.0000000000,,,
0.2734375000,4,18.0000000000,,,
0.2753906250,4,29.0000000000,,,
0.2773437500,4,21.0000000000,,,
0.2792968750,4,23.0000000000,,,
0.2812500000,4,44.0000000000,,,
0.2832031250,4,35.0000000000,,,
0.2851562500,4,6.0000000000,,,
0.2871093750,4,36.0000000000,,,
0.2890625000,4,68.0000000000,,,
0.2910156250,4,60.0000000000,,,
0.2929687500,4,71.0000000000,,,
0.2949218750,4,87.0000000000,,,
0.2968750000,4,81.0000000000,,,
0.2988281250,4,66.0000000000,,,
0.3007812500,4,44.0000000000,,,
0.3027343750,4,26.0000000000,,,
0.3046875000,4,50.0000000000,,,
0.3066406250,4,70.0000000000,,,
0.3085937500,4,66.0000000000,,,
0.3105468750,4,40.0000000000,,,
0.3125000000,5,23.0000000000,,,
0.3144531250,5,9.0000000000,,,
0.3164062500,5,13.0000000000,,,
0.3183593750,5,34.0000000000,,,
0.3203125000,5,22.0000000000,,,
0.3222656250,5,13.0000000000,,,
0.3242187500,5,32.0000000000,,,
0.3261718750,5,52.0000000000,,,
0.3281250000,5,77.0000000000,,,
0.3300781250,5,112.0000000000,,,
0.3320312500,5,135.0000000000,,,
0.3339843750,5,138.0000000000,,,
0.3359375000,5,139.0000000000,,,
0.3378906250,5,160.0000000000,,,
0.3398437500,5,167.0000000000,,,
0.3417968750,5,135.0000000000,,,
0.3437500000,5,90.0000000000,,,
0.3457031250,5,84.0000000000,,,
0.3476562500,5,122.0000000000,,,
0.3496093750,5,151.0000000000,,,
0.3515625000,5,160.0000000000,,,
0.3535156250,5,176.0000000000,,,
0.3554687500,5,167.0000000000,,,
0.3574218750,5,155.0000000000,33552,0.3574218750,0.0000000000
0.3593750000,5,194.0000000000,,,
0.3613281250,5,185.0000000000,,,
0.3632812500,5,153.0000000000,,,
0.3652343750,5,129.0000000000,,,
0.3671875000,5,113.0000000000,,,
0.3691406250,5,120.0000000000,,,
0.3710937500,5,154.0000000000,,,
0.3730468750,5,185.0000000000,,,
0.3750000000,6,210.0000000000,,,
0.3769531250,6,196.0000000000,,,
0.3789062500,6,152.0000000000,,,
0.3808593750,6,134.0000000000,,,
0.3828125000,6,171.0000000000,,,
0.3847656250,6,188.0000000000,,,
0.3867187500,6,177.0000000000,,,
0.3886718750,6,164.0000000000,,,
0.3906250000,6,135.0000000000,,,
0.3925781250,6,120.0000000000,,,
0.3945312500,6,112.0000000000,,,
0.3964843750,6,112.0000000000,,,
0.3984375000,6,135.0000000000,,,
0.4003906250,6,144.0000000000,,,
0.4023437500,6,112.0000000000,,,
0.4042968750,6,100.0000000000,,,
0.4062500000,6,132.0000000000,,,
0.4082031250,6,135.0000000000,,,
0.4101562500,6,98.0000000000,,,
0.4121093750,6,85.0000000000,,,
0.4140625000,6,105.0000000000,,,
0.4160156250,6,117.0000000000,,,
0.4179687500,6,92.0000000000,,,
0.4199218750,6,52.0000000000,,,
0.4218750000,6,32.0000000000,,,
0.4238281250,6,26.0000000000,,,
0.4257812500,6,33.0000000000,,,
0.4277343750,6,60.0000000000,,,
0.4296875000,6,75.0000000000,,,
0.4316406250,6,56.0000000000,,,
0.4335937500,6,18.0000000000,,,
0.4355468750,6,-6.0000000000,,,
0.4375000000,7,-6.0000000000,,,
0.4394531250,7,2.0000000000,,,
0.4414062500,7,9.0000000000,,,
0.4433593750,7,33.0000000000,,,
0.4453125000,7,80.0000000000,,,
0.4472656250,7,91.0000000000,,,
0.4492187500,7,41.0000000000,,,
0.4511718750,7,-12.0000000000,,,
0.4531250000,7,-46.0000000000,,,
0.4550781250,7,-50.0000000000,,,
0.4570312500,7,-23.0000000000,,,
0.4589843750,7,-12.0000000000,,,
0.4609375000,7,-51.0000000000,,,
0.4628906250,7,-103.0000000000,,,
0.4648437500,7,-105.0000000000,,,
0.4667968750,7,-65.0000000000,,,
0.4687500000,7,-65.0000000000,,,
0.4707031250,7,-81.0000000000,,,
0.4726562500,7,-74.0000000000,,,
0.4746093750,7,-59.0000000000,,,
0.4765625000,7,-72.0000000000,,,
0.4785156250,7,-90.0000000000,,,
0.4804687500,7,-72.0000000000,,,
0.4824218750,7,-7.0000000000,,,
0.4843750000,7,22.0000000000,,,
0.4863281250,7,0.0000000000,,,
0.4882812500,7,-27.0000000000,,,
0.4902343750,7,-85.0000000000,,,
0.4921875000,7,-106.0000000000,,,
0.4941406250,7,-81.0000000000,,,
0.4960937500,7,-72.0000000000,,,
0.4980468750,7,-90.0000000000,,,
0.5000000000,8,-99.0000000000,,,
0.5019531250,8,-75.0000000000,,,
0.5039062500,8,-55.0000000000,,,
0.5058593750,8,-25.0000000000,,,
0.5078125000,8,-17.0000000000,,,
0.5097656250,8,-25.0000000000,,,
0.5117187500,8,-20.0000000000,,,
0.5136718750,8,-11.0000000000,,,
0.5156250000,8,-12.0000000000,,,
0.5175781250,8,-11.0000000000,,,
0.5195312500,8,-25.0000000000,,,
0.5214843750,8,-25.0000000000,,,
0.5234375000,8,-21.0000000000,,,
0.5253906250,8,-20.0000000000,,,
0.5273437500,8,-21.0000000000,,,
0.5292968750,8,-41.0000000000,,,
0.5312500000,8,-53.0000000000,,,
0.5332031250,8,-26.0000000000,,,
0.5351562500,8,-22.0000000000,,,
0.5371093750,8,-57.0000000000,,,
0.5390625000,8,-73.0000000000,,,
0.5410156250,8,-72.0000000000,,,
0.5429687500,8,-49.0000000000,,,
0.5449218750,8,-44.0000000000,,,
0.5468750000,8,-97.0000000000,,,
0.5488281250,8,-135.0000000000,,,
0.5507812500,8,-122.0000000000,,,
0.5527343750,8,-73.0000000000,,,
0.5546875000,8,-37.0000000000,,,
0.5566406250,8,-29.0000000000,,,
0.5585937500,8,-57.0000000000,,,
0.5605468750,8,-85.0000000000,,,
0.5625000000,9,-82.0000000000,,,
0.5644531250,9,-69.0000000000,,,
0.5664062500,9,-41.0000000000,,,
0.5683593750,9,-38.0000000000,,,
0.5703125000,9,-76.0000000000,,,
0.5722656250,9,-106.0000000000,,,
0.5742187500,9,-82.0000000000,,,
0.5761718750,9,-25.0000000000,,,
0.5781250000,9,23.0000000000,,,
0.5800781250,9,52.0000000000,,,
0.5820312500,9,41.0000000000,,,
0.5839843750,9,22.0000000000,,,
0.5859375000,9,0.0000000000,,,
0.5878906250,9,-28.0000000000,,,
0.5898437500,9,-46.0000000000,,,
0.5917968750,9,-77.0000000000,,,
0.5937500000,9,-115.0000000000,,,
0.5957031250,9,-132.0000000000,,,
0.5976562500,9,-100.0000000000,,,
0.5996093750,9,-11.0000000000,,,
0.6015625000,9,20.0000000000,,,
0.6035156250,9,6.0000000000,,,
0.6054687500,9,6.0000000000,,,
0.6074218750,9,22.0000000000,,,
0.6093750000,9,8.0000000000,,,
0.6113281250,9,-18.0000000000,,,
0.6132812500,9,-28.0000000000,,,
0.6152343750,9,-37.0000000000,,,
0.6171875000,9,-20.0000000000,,,
0.6191406250,9,-9.0000000000,,,
0.6210937500,9,-20.0000000000,,,
0.6230468750,9,-3.0000000000,,,
0.6250000000,10,26.0000000000,,,
0.6269531250,10,54.0000000000,,,
0.6289062500,10,80.0000000000,,,
0.6308593750,10,109.0000000000,,,
0.6328125000,10,83.0000000000,,,
0.6347656250,10,41.0000000000,,,
0.6367187500,10,1.0000000000,,,
0.6386718750,10,-21.0000000000,,,
0.6406250000,10,-28.0000000000,,,
0.6425781250,10,-39.0000000000,,,
0.6445312500,10,-65.0000000000,,,
0.6464843750,10,-107.0000000000,,,
0.6484375000,10,-134.0000000000,,,
0.6503906250,10,-123.0000000000,,,
0.6523437500,10,-103.0000000000,,,
0.6542968750,10,-76.0000000000,,,
0.6562500000,10,-59.0000000000,,,
0.6582031250,10,-54.0000000000,,,
0.6601562500,10,-74.0000000000,,,
0.6621093750,10,-100.0000000000,,,
0.6640625000,10,-81.0000000000,,,
0.6660156250,10,-38.0000000000,,,
0.6679687500,10,-10.0000000000,,,
0.6699218750,10,-11.0000000000,,,
0.6718750000,10,-23.0000000000,,,
0.6738281250,10,3.0000000000,,,
0.6757812500,10,7.0000000000,,,
0.6777343750,10,-23.0000000000,,,
0.6796875000,10,-36.0000000000,,,
0.6816406250,10,-26.0000000000,,,
0.6835937500,10,-12.0000000000,,,
0.6855468750,10,17.0000000000,,,
0.6875000000,11,22.0000000000,,,
0.6894531250,11,2.0000000000,,,
0.6914062500,11,-11.0000000000,,,
0.6933593750,11,-34.0000000000,,,
0.6953125000,11,-38.0000000000,,,
0.6972656250,11,-18.0000000000,,,
0.6992187500,11,-11.0000000000,,,
0.7011718750,11,-23.0000000000,,,
0.7031250000,11,-6.0000000000,,,
0.7050781250,11,48.0000000000,,,
0.7070312500,11,84.0000000000,,,
0.7089843750,11,90.0000000000,,,
0.7109375000,11,90.0000000000,,,
0.7128906250,11,75.0000000000,,,
0.7148437500,11,17.0000000000,,,
0.7167968750,11,-20.0000000000,,,
0.7187500000,11,-13.0000000000,,,
0.7207031250,11,2.0000000000,,,
0.7226562500,11,28.0000000000,,,
0.7246093750,11,67.0000000000,,,
0.7265625000,11,68.0000000000,,,
0.7285156250,11,52.0000000000,,,
0.7304687500,11,58.0000000000,,,
0.7324218750,11,104.0000000000,,,
0.7343750000,11,149.0000000000,,,
0.7363281250,11,132.0000000000,,,
0.7382812500,11,73.0000000000,,,
0.7402343750,11,76.0000000000,,,
0.7421875000,11,118.0000000000,,,
0.7441406250,11,119.0000000000,,,
0.7460937500,11,70.0000000000,,,
0.7480468750,11,34.0000000000,,,
0.7500000000,12,19.0000000000,,,
0.7519531250,12,40.0000000000,,,
0.7539062500,12,83.0000000000,,,
0.7558593750,12,76.0000000000,,,
0.7578125000,12,36.0000000000,,,
0.7597656250,12,48.0000000000,,,
0.7617187500,12,96.0000000000,,,
0.7636718750,12,131.0000000000,,,
0.7656250000,12,133.0000000000,,,
0.7675781250,12,98.0000000000,,,
0.7695312500,12,83.0000000000,,,
0.7714843750,12,96.0000000000,,,
0.7734375000,12,99.0000000000,,,
0.7753906250,12,89.0000000000,,,
0.7773437500,12,74.0000000000,,,
0.7792968750,12,97.0000000000,,,
0.7812500000,12,145.0000000000,,,
0.7832031250,12,156.0000000000,,,
0.7851562500,12,128.0000000000,,,
0.7871093750,12,113.0000000000,,,
0.7890625000,12,139.0000000000,,,
0.7910156250,12,163.0000000000,,,
0.7929687500,12,136.0000000000,,,
0.7949218750,12,109.0000000000,,,
0.7968750000,12,103.0000000000,,,
0.7988281250,12,93.0000000000,,,
0.8007812500,12,74.0000000000,,,
0.8027343750,12,97.0000000000,,,
0.8046875000,12,160.0000000000,,,
0.8066406250,12,152.0000000000,,,
0.8085937500,12,90.0000000000,,,
0.8105468750,12,70.0000000000,,,
0.8125000000,13,115.0000000000,,,
0.8144531250,13,150.0000000000,,,
0.8164062500,13,107.0000000000,,,
0.8183593750,13,44.0000000000,,,
0.8203125000,13,20.0000000000,,,
0.8222656250,13,44.0000000000,,,
0.8242187500,13,106.0000000000,,,
0.8261718750,13,149.0000000000,,,
0.8281250000,13,160.0000000000,,,
0.8300781250,13,156.0000000000,,,
0.8320312500,13,147.0000000000,,,
0.8339843750,13,139.0000000000,,,
0.8359375000,13,130.0000000000,,,
0.8378906250,13,122.0000000000,,,
0.8398437500,13,131.0000000000,,,
0.8417968750,13,131.0000000000,,,
0.8437500000,13,120.0000000000,,,
0.8457031250,13,120.0000000000,,,
0.8476562500,13,116.0000000000,,,
0.8496093750,13,112.0000000000,,,
0.8515625000,13,122.0000000000,,,
0.8535156250,13,132.0000000000,,,
0.8554687500,13,132.0000000000,,,
0.8574218750,13,120.0000000000,,,
0.8593750000,13,92.0000000000,,,
0.8613281250,13,91.0000000000,,,
0.8632812500,13,71.0000000000,,,
0.8652343750,13,23.0000000000,,,
0.8671875000,13,2.0000000000,,,
0.8691406250,13,8.0000000000,,,
0.8710937500,13,2.0000000000,,,
0.8730468750,13,-9.0000000000,,,
0.8750000000,14,-27.0000000000,,,
0.8769531250,14,-44.0000000000,,,
0.8789062500,14,-27.0000000000,,,
0.8808593750,14,0.0000000000,,,
0.8828125000,14,-2.0000000000,,,
0.8847656250,14,-17.0000000000,,,
0.8867187500,14,-7.0000000000,,,
0.8886718750,14,19.0000000000,,,
0.8906250000,14,20.0000000000,,,
0.8925781250,14,-3.0000000000,,,
0.8945312500,14,-11.0000000000,,,
0.8964843750,14,21.0000000000,,,
0.8984375000,14,48.0000000000,,,
0.9003906250,14,10.0000000000,,,
0.9023437500,14,-28.0000000000,,,
0.9042968750,14,-53.0000000000,,,
0.9062500000,14,-67.0000000000,,,
0.9082031250,14,-67.0000000000,,,
0.9101562500,14,-60.0000000000,,,
0.9121093750,14,-38.0000000000,,,
0.9140625000,14,-40.0000000000,,,
0.9160156250,14,-77.0000000000,,,
0.9179687500,14,-97.0000000000,,,
0.9199218750,14,-88.0000000000,,,
0.9218750000,14,-89.0000000000,,,
0.9238281250,14,-117.0000000000,,,
0.9257812500,14,-133.0000000000,,,
0.9277343750,14,-120.0000000000,,,
0.9296875000,14,-104.0000000000,,,
0.9316406250,14,-109.0000000000,,,
0.9335937500,14,-105.0000000000,,,
0.9355468750,14,-94.0000000000,,,
0.9375000000,15,-68.0000000000,,,
0.9394531250,15,-29.0000000000,,,
0.9414062500,15,-17.0000000000,,,
0.9433593750,15,-22.0000000000,,,
0.9453125000,15,-34.0000000000,,,
0.9472656250,15,-39.0000000000,,,
0.9492187500,15,-28.0000000000,,,
0.9511718750,15,-4.0000000000,,,
0.9531250000,15,13.0000000000,,,
0.9550781250,15,13.0000000000,,,
0.9570312500,15,12.0000000000,,,
0.9589843750,15,51.0000000000,,,
0.9609375000,15,70.0000000000,,,
0.9628906250,15,7.0000000000,,,
0.9648437500,15,-27.0000000000,,,
0.9667968750,15,-11.0000000000,,,
0.9687500000,15,8.0000000000,,,
0.9707031250,15,13.0000000000,,,
0.9726562500,15,23.0000000000,,,
0.9746093750,15,20.0000000000,,,
0.9765625000,15,-1.0000000000,,,
0.9785156250,15,19.0000000000,,,
0.9804687500,15,65.0000000000,,,
0.9824218750,15,84.0000000000,,,
0.9843750000,15,81.0000000000,,,
0.9863281250,15,84.0000000000,,,
0.9882812500,15,97.0000000000,,,
0.9902343750,15,73.0000000000,,,
0.9921875000,15,35.0000000000,,,
0.9941406250,15,39.0000000000,,,
0.9960937500,15,66.0000000000,,,
0.9980468750,15,76.0000000000,,,
1.0000000000,16,67.0000000000,,,
1.0019531250,16,44.0000000000,,,
1.0039062500,16,49.0000000000,,,
1.0058593750,16,77.0000000000,,,
1.0078125000,16,118.0000000000,,,
1.0097656250,16,135.0000000000,,,
1.0117187500,16,119.0000000000,,,
1.0136718750,16,86.0000000000,,,
1.0156250000,16,66.0000000000,,,
1.0175781250,16,66.0000000000,,,
1.0195312500,16,69.0000000000,,,
1.0214843750,16,71.0000000000,,,
1.0234375000,16,76.0000000000,,,
1.0253906250,16,85.0000000000,,,
1.0273437500,16,67.0000000000,,,
1.0292968750,16,40.0000000000,,,
1.0312500000,16,27.0000000000,,,
1.0332031250,16,74.0000000000,,,
1.0351562500,16,161.0000000000,,,
1.0371093750,16,163.0000000000,,,
1.0390625000,16,90.0000000000,,,
1.0410156250,16,80.0000000000,,,
1.0429687500,16,119.0000000000,,,
1.0449218750,16,154.0000000000,,,
1.0468750000,16,169.0000000000,,,
1.0488281250,16,157.0000000000,,,
1.0507812500,16,140.0000000000,,,
1.0527343750,16,153.0000000000,,,
1.0546875000,16,169.0000000000,,,
1.0566406250,16,167.0000000000,,,
1.0585937500,16,164.0000000000,,,
1.0605468750,16,186.0000000000,,,
1.0625000000,17,227.0000000000,,,
1.0644531250,17,251.0000000000,,,
1.0664062500,17,251.0000000000,,,
1.0683593750,17,219.0000000000,,,
1.0703125000,17,201.0000000000,,,
1.0722656250,17,212.0000000000,,,
1.0742187500,17,227.0000000000,,,
1.0761718750,17,217.0000000000,,,
1.0781250000,17,201.0000000000,,,
1.0800781250,17,193.0000000000,,,
1.0820312500,17,193.0000000000,,,
1.0839843750,17,187.0000000000,,,
1.0859375000,17,199.0000000000,,,
1.0878906250,17,221.0000000000,,,
1.0898437500,17,204.0000000000,,,
1.0917968750,17,173.0000000000,,,
1.0937500000,17,176.0000000000,,,
1.0957031250,17,197.0000000000,,,
1.0976562500,17,192.0000000000,,,
1.0996093750,17,131.0000000000,,,
1.1015625000,17,61.0000000000,,,
1.1035156250,17,45.0000000000,,,
1.1054687500,17,58.0000000000,,,
1.1074218750,17,54.0000000000,,,
1.1093750000,17,39.0000000000,,,
1.1113281250,17,-2.0000000000,,,
1.1132812500,17,-36.0000000000,,,
1.1152343750,17,-45.0000000000,,,
1.1171875000,17,-53.0000000000,,,
1.1191406250,17,-51.0000000000,,,
1.1210937500,17,-52.0000000000,,,
1.1230468750,17,-72.0000000000,,,
1.1250000000,18,-133.0000000000,,,
1.1269531250,18,-197.0000000000,,,
1.1289062500,18,-227.0000000000,,,
1.1308593750,18,-228.0000000000,,,
1.1328125000,18,-228.0000000000,,,
1.1347656250,18,-266.0000000000,,,
1.1367187500,18,-331.0000000000,,,
1.1386718750,18,-363.0000000000,,,
1.1406250000,18,-347.0000000000,,,
1.1425781250,18,-363.0000000000,,,
1.1445312500,18,-420.0000000000,,,
1.1464843750,18,-450.0000000000,,,
1.1484375000,18,-445.0000000000,,,
1.1503906250,18,-444.0000000000,,,
1.1523437500,18,-452.0000000000,,,
1.1542968750,18,-470.0000000000,,,
1.1562500000,18,-440.0000000000,,,
1.1582031250,18,-379.0000000000,,,
1.1601562500,18,-380.0000000000,,,
1.1621093750,18,-446.0000000000,,,
1.1640625000,18,-534.0000000000,,,
1.1660156250,18,-562.0000000000,,,
1.1679687500,18,-526.0000000000,,,
1.1699218750,18,-493.0000000000,,,
1.1718750000,18,-506.0000000000,,,
1.1738281250,18,-518.0000000000,,,
1.1757812500,18,-504.0000000000,,,
1.1777343750,18,-454.0000000000,,,
1.1796875000,18,-382.0000000000,,,
1.1816406250,18,-347.0000000000,,,
1.1835937500,18,-348.0000000000,,,
1.1855468750,18,-341.0000000000,,,
1.1875000000,19,-341.0000000000,,,
1.1894531250,19,-395.0000000000,,,
1.1914062500,19,-475.0000000000,,,
1.1933593750,19,-510.0000000000,,,
1.1953125000,19,-461.0000000000,,,
1.1972656250,19,-363.0000000000,,,
1.1992187500,19,-263.0000000000,,,
1.2011718750,19,-215.0000000000,,,
1.2031250000,19,-254.0000000000,,,
1.2050781250,19,-282.0000000000,,,
1.2070312500,19,-214.0000000000,,,
1.2089843750,19,-139.0000000000,,,
1.2109375000,19,-116.0000000000,,,
1.2128906250,19,-149.0000000000,,,
1.2148437500,19,-183.0000000000,,,
1.2167968750,19,-162.0000000000,,,
1.2187500000,19,-108.0000000000,,,
1.2207031250,19,-89.0000000000,,,
1.2226562500,19,-88.0000000000,,,
1.2246093750,19,-98.0000000000,,,
1.2265625000,19,-106.0000000000,,,
1.2285156250,19,-91.0000000000,,,
1.2304687500,19,-60.0000000000,,,
1.2324218750,19,-45.0000000000,,,
1.2343750000,19,-35.0000000000,,,
1.2363281250,19,-17.0000000000,,,
1.2382812500,19,-8.0000000000,,,
1.2402343750,19,10.0000000000,,,
1.2421875000,19,56.0000000000,,,
1.2441406250,19,113.0000000000,,,
1.2460937500,19,155.0000000000,,,
1.2480468750,19,156.0000000000,,,
1.2500000000,20,121.0000000000,,,
1.2519531250,20,120.0000000000,,,
1.2539062500,20,167.0000000000,,,
1.2558593750,20,211.0000000000,,,
1.2578125000,20,241.0000000000,,,
1.2597656250,20,266.0000000000,,,
1.2617187500,20,278.0000000000,,,
1.2636718750,20,276.0000000000,,,
1.2656250000,20,249.0000000000,,,
1.2675781250,20,245.0000000000,,,
1.2695312500,20,284.0000000000,,,
1.2714843750,20,352.0000000000,,,
1.2734375000,20,395.0000000000,,,
1.2753906250,20,353.0000000000,,,
1.2773437500,20,299.0000000000,,,
1.2792968750,20,281.0000000000,,,
1.2812500000,20,272.0000000000,,,
1.2832031250,20,258.0000000000,,,
1.2851562500,20,262.0000000000,,,
1.2871093750,20,267.0000000000,,,
1.2890625000,20,245.0000000000,,,
1.2910156250,20,225.0000000000,,,
1.2929687500,20,246.0000000000,33553,1.2929687500,0.0019531250
1.2949218750,20,246.0000000000,33554,1.2949218750,0.0000000000
1.2968750000,20,267.0000000000,,,
1.2988281250,20,259.0000000000,,,
1.3007812500,20,266.0000000000,,,
1.3027343750,20,289.0000000000,,,
1.3046875000,20,279.0000000000,,,
1.3066406250,20,267.0000000000,,,
1.3085937500,20,269.0000000000,,,
1.3105468750,20,278.0000000000,,,
1.3125000000,21,276.0000000000,,,
1.3144531250,21,278.0000000000,,,
1.3164062500,21,281.0000000000,,,
1.3183593750,21,276.0000000000,,,
1.3203125000,21,290.0000000000,,,
1.3222656250,21,317.0000000000,,,
1.3242187500,21,321.0000000000,,,
1.3261718750,21,315.0000000000,,,
1.3281250000,21,333.0000000000,,,
1.3300781250,21,361.0000000000,,,
1.3320312500,21,394.0000000000,,,
1.3339843750,21,408.0000000000,,,
1.3359375000,21,375.0000000000,,,
1.3378906250,21,368.0000000000,,,
1.3398437500,21,434.0000000000,,,
1.3417968750,21,442.0000000000,,,
1.3437500000,21,360.0000000000,,,
1.3457031250,21,288.0000000000,,,
1.3476562500,21,292.0000000000,,,
1.3496093750,21,354.0000000000,,,
1.3515625000,21,425.0000000000,,,
1.3535156250,21,441.0000000000,,,
1.3554687500,21,404.0000000000,,,
1.3574218750,21,377.0000000000,,,
1.3593750000,21,365.0000000000,,,
1.3613281250,21,339.0000000000,,,
1.3632812500,21,339.0000000000,,,
1.3652343750,21,371.0000000000,,,
1.3671875000,21,359.0000000000,,,
1.3691406250,21,329.0000000000,,,
1.3710937500,21,324.0000000000,,,
1.3730468750,21,325.0000000000,,,
1.3750000000,22,327.0000000000,,,
1.3769531250,22,289.0000000000,,,
1.3789062500,22,235.0000000000,,,
1.3808593750,22,247.0000000000,,,
1.3828125000,22,272.0000000000,,,
1.3847656250,22,264.0000000000,,,
1.3867187500,22,291.0000000000,,,
1.3886718750,22,317.0000000000,,,
1.3906250000,22,297.0000000000,,,
1.3925781250,22,252.0000000000,,,
1.3945312500,22,211.0000000000,,,
1.3964843750,22,154.0000000000,,,
1.3984375000,22,128.0000000000,,,
1.4003906250,22,120.0000000000,,,
1.4023437500,22,112.0000000000,,,
1.4042968750,22,146.0000000000,,,
1.4062500000,22,198.0000000000,,,
1.4082031250,22,252.0000000000,,,
1.4101562500,22,306.0000000000,,,
1.4121093750,22,308.0000000000,,,
1.4140625000,22,260.0000000000,,,
1.4160156250,22,199.0000000000,,,
1.4179687500,22,141.0000000000,,,
1.4199218750,22,121.0000000000,,,
1.4218750000,22,131.0000000000,,,
1.4238281250,22,141.0000000000,,,
1.4257812500,22,135.0000000000,,,
1.4277343750,22,134.0000000000,,,
1.4296875000,22,149.0000000000,,,
1.4316406250,22,165.0000000000,,,
1.4335937500,22,181.0000000000,,,
1.4355468750,22,192.0000000000,,,
1.4375000000,23,145.0000000000,,,
1.4394531250,23,65.0000000000,,,
1.4414062500,23,65.0000000000,,,
1.4433593750,23,105.0000000000,,,
1.4453125000,23,128.0000000000,,,
1.4472656250,23,150.0000000000,,,
1.4492187500,23,167.0000000000,,,
1.4511718750,23,137.0000000000,,,
1.4531250000,23,92.0000000000,,,
1.4550781250,23,93.0000000000,,,
1.4570312500,23,133.0000000000,,,
1.4589843750,23,137.0000000000,,,
1.4609375000,23,93.0000000000,,,
1.4628906250,23,82.0000000000,,,
1.4648437500,23,129.0000000000,,,
1.4667968750,23,177.0000000000,,,
1.4687500000,23,157.0000000000,,,
1.4707031250,23,101.0000000000,,,
1.4726562500,23,53.0000000000,,,
1.4746093750,23,36.0000000000,,,
1.4765625000,23,52.0000000000,,,
1.4785156250,23,72.0000000000,,,
1.4804687500,23,85.0000000000,,,
1.4824218750,23,97.0000000000,,,
1.4843750000,23,92.0000000000,,,
1.4863281250,23,50.0000000000,,,
1.4882812500,23,23.0000000000,,,
1.4902343750,23,54.0000000000,,,
1.4921875000,23,106.0000000000,,,
1.4941406250,23,112.0000000000,,,
1.4960937500,23,54.0000000000,,,
1.4980468750,23,-3.0000000000,,,
1.5000000000,24,-5.0000000000,,,
1.5019531250,24,55.0000000000,,,
1.5039062500,24,81.0000000000,,,
1.5058593750,24,6.0000000000,,,
1.5078125000,24,-42.0000000000,,,
1.5097656250,24,-29.0000000000,,,
1.5117187500,24,-22.0000000000,,,
1.5136718750,24,-10.0000000000,,,
1.5156250000,24,40.0000000000,,,
1.5175781250,24,57.0000000000,,,
1.5195312500,24,5.0000000000,,,
1.5214843750,24,-35.0000000000,,,
1.5234375000,24,-29.0000000000,,,
1.5253906250,24,4.0000000000,,,
1.5273437500,24,56.0000000000,,,
1.5292968750,24,65.0000000000,,,
1.5312500000,24,3.0000000000,,,
1.5332031250,24,-9.0000000000,,,
1.5351562500,24,24.0000000000,,,
1.5371093750,24,49.0000000000,,,
1.5390625000,24,51.0000000000,,,
1.5410156250,24,48.0000000000,,,
1.5429687500,24,44.0000000000,,,
1.5449218750,24,35.0000000000,,,
1.5468750000,24,32.0000000000,,,
1.5488281250,24,8.0000000000,,,
1.5507812500,24,-10.0000000000,,,
1.5527343750,24,-5.0000000000,,,
1.5546875000,24,1.0000000000,,,
1.5566406250,24,11.0000000000,,,
1.5585937500,24,38.0000000000,,,
1.5605468750,24,33.0000000000,,,
1.5625000000,25,7.0000000000,,,
1.5644531250,25,20.0000000000,,,
1.5664062500,25,51.0000000000,,,
1.5683593750,25,54.0000000000,,,
1.5703125000,25,28.0000000000,,,
1.5722656250,25,10.0000000000,,,
1.5742187500,25,22.0000000000,,,
1.5761718750,25,-4.0000000000,,,
1.5781250000,25,-65.0000000000,,,
1.5800781250,25,-91.0000000000,,,
1.5820312500,25,-92.0000000000,,,
1.5839843750,25,-76.0000000000,,,
1.5859375000,25,-46.0000000000,,,
1.5878906250,25,2.0000000000,,,
1.5898437500,25,43.0000000000,,,
1.5917968750,25,20.0000000000,,,
1.5937500000,25,-23.0000000000,,,
1.5957031250,25,-21.0000000000,,,
1.5976562500,25,0.0000000000,,,
1.5996093750,25,-42.0000000000,,,
1.6015625000,25,-81.0000000000,,,
1.6035156250,25,-71.0000000000,,,
1.6054687500,25,-73.0000000000,,,
1.6074218750,25,-109.0000000000,,,
1.6093750000,25,-119.0000000000,,,
1.6113281250,25,-82.0000000000,,,
1.6132812500,25,-55.0000000000,,,
1.6152343750,25,-18.0000000000,,,
1.6171875000,25,12.0000000000,,,
1.6191406250,25,4.0000000000,,,
1.6210937500,25,-18.0000000000,,,
1.6230468750,25,-17.0000000000,,,
1.6250000000,26,0.0000000000,,,
1.6269531250,26,-9.0000000000,,,
1.6289062500,26,-44.0000000000,,,
1.6308593750,26,-43.0000000000,,,
1.6328125000,26,-14.0000000000,,,
1.6347656250,26,12.0000000000,,,
1.6367187500,26,43.0000000000,,,
1.6386718750,26,48.0000000000,,,
1.6406250000,26,23.0000000000,,,
1.6425781250,26,24.0000000000,,,
1.6445312500,26,43.0000000000,,,
1.6464843750,26,51.0000000000,,,
1.6484375000,26,43.0000000000,,,
1.6503906250,26,48.0000000000,,,
1.6523437500,26,75.0000000000,,,
1.6542968750,26,66.0000000000,,,
1.6562500000,26,40.0000000000,,,
1.6582031250,26,41.0000000000,,,
1.6601562500,26,68.0000000000,,,
1.6621093750,26,105.0000000000,,,
1.6640625000,26,121.0000000000,,,
1.6660156250,26,105.0000000000,,,
1.6679687500,26,65.0000000000,,,
1.6699218750,26,55.0000000000,,,
1.6718750000,26,59.0000000000,,,
1.6738281250,26,73.0000000000,,,
1.6757812500,26,109.0000000000,,,
1.6777343750,26,114.0000000000,,,
1.6796875000,26,60.0000000000,,,
1.6816406250,26,19.0000000000,,,
1.6835937500,26,23.0000000000,,,
1.6855468750,26,58.0000000000,,,
1.6875000000,27,96.0000000000,,,
1.6894531250,27,71.0000000000,,,
1.6914062500,27,38.0000000000,,,
1.6933593750,27,42.0000000000,,,
1.6953125000,27,58.0000000000,,,
1.6972656250,27,72.0000000000,,,
1.6992187500,27,40.0000000000,,,
1.7011718750,27,-21.0000000000,,,
1.7031250000,27,-43.0000000000,,,
1.7050781250,27,-19.0000000000,,,
1.7070312500,27,-21.0000000000,,,
1.7089843750,27,-36.0000000000,,,
1.7109375000,27,-17.0000000000,,,
1.7128906250,27,27.0000000000,,,
1.7148437500,27,55.0000000000,,,
1.7167968750,27,42.0000000000,,,
1.7187500000,27,7.0000000000,,,
1.7207031250,27,5.0000000000,,,
1.7226562500,27,56.0000000000,,,
1.7246093750,27,84.0000000000,,,
1.7265625000,27,40.0000000000,,,
1.7285156250,27,-1.0000000000,,,
1.7304687500,27,-14.0000000000,,,
1.7324218750,27,-5.0000000000,,,
1.7343750000,27,16.0000000000,,,
1.7363281250,27,19.0000000000,,,
1.7382812500,27,8.0000000000,,,
1.7402343750,27,1.0000000000,,,
1.7421875000,27,-2.0000000000,,,
1.7441406250,27,18.0000000000,,,
1.7460937500,27,32.0000000000,,,
1.7480468750,27,37.0000000000,,,
1.7500000000,28,40.0000000000,,,
1.7519531250,28,34.0000000000,,,
1.7539062500,28,1.0000000000,,,
1.7558593750,28,-20.0000000000,,,
1.7578125000,28,-2.0000000000,,,
1.7597656250,28,42.0000000000,,,
1.7617187500,28,41.0000000000,,,
1.7636718750,28,-11.0000000000,,,
1.7656250000,28,-12.0000000000,,,
1.7675781250,28,4.0000000000,,,
1.7695312500,28,12.0000000000,,,
1.7714843750,28,20.0000000000,,,
1.7734375000,28,11.0000000000,,,
1.7753906250,28,6.0000000000,,,
1.7773437500,28,12.0000000000,,,
1.7792968750,28,-1.0000000000,,,
1.7812500000,28,-35.0000000000,,,
1.7832031250,28,-60.0000000000,,,
1.7851562500,28,-66.0000000000,,,
1.7871093750,28,-37.0000000000,,,
1.7890625000,28,-19.0000000000,,,
1.7910156250,28,-68.0000000000,,,
1.7929687500,28,-120.0000000000,,,
1.7949218750,28,-121.0000000000,,,
1.7968750000,28,-83.0000000000,,,
1.7988281250,28,-30.0000000000,,,
1.8007812500,28,1.0000000000,,,
1.8027343750,28,24.0000000000,,,
1.8046875000,28,25.0000000000,,,
1.8066406250,28,-4.0000000000,,,
1.8085937500,28,-2.0000000000,,,
1.8105468750,28,28.0000000000,,,
1.8125000000,29,36.0000000000,,,
1.8144531250,29,28.0000000000,,,
1.8164062500,29,38.0000000000,,,
1.8183593750,29,54.0000000000,,,
1.8203125000,29,24.0000000000,,,
1.8222656250,29,-5.0000000000,,,
1.8242187500,29,12.0000000000,,,
1.8261718750,29,58.0000000000,,,
1.8281250000,29,71.0000000000,,,
1.8300781250,29,61.0000000000,,,
1.8320312500,29,88.0000000000,,,
1.8339843750,29,146.0000000000,,,
1.8359375000,29,184.0000000000,,,
1.8378906250,29,173.0000000000,,,
1.8398437500,29,136.0000000000,,,
1.8417968750,29,138.0000000000,,,
1.8437500000,29,162.0000000000,,,
1.8457031250,29,176.0000000000,,,
1.8476562500,29,168.0000000000,,,
1.8496093750,29,138.0000000000,,,
1.8515625000,29,90.0000000000,,,
1.8535156250,29,65.0000000000,,,
1.8554687500,29,91.0000000000,,,
1.8574218750,29,132.0000000000,,,
1.8593750000,29,134.0000000000,,,
1.8613281250,29,129.0000000000,,,
1.8632812500,29,139.0000000000,,,
1.8652343750,29,140.0000000000,,,
1.8671875000,29,123.0000000000,,,
1.8691406250,29,96.0000000000,,,
1.8710937500,29,90.0000000000,,,
1.8730468750,29,101.0000000000,,,
1.8750000000,30,105.0000000000,,,
1.8769531250,30,109.0000000000,,,
1.8789062500,30,107.0000000000,,,
1.8808593750,30,91.0000000000,,,
1.8828125000,30,66.0000000000,,,
1.8847656250,30,67.0000000000,,,
1.8867187500,30,102.0000000000,,,
1.8886718750,30,152.0000000000,,,
1.8906250000,30,177.0000000000,,,
1.8925781250,30,164.0000000000,,,
1.8945312500,30,125.0000000000,,,
1.8964843750,30,88.0000000000,,,
1.8984375000,30,102.0000000000,,,
1.9003906250,30,140.0000000000,,,
1.9023437500,30,156.0000000000,,,
1.9042968750,30,157.0000000000,,,
1.9062500000,30,118.0000000000,,,
1.9082031250,30,65.0000000000,,,
1.9101562500,30,48.0000000000,,,
1.9121093750,30,93.0000000000,,,
1.9140625000,30,129.0000000000,,,
1.9160156250,30,138.0000000000,,,
1.9179687500,30,140.0000000000,,,
1.9199218750,30,98.0000000000,,,
1.9218750000,30,48.0000000000,,,
1.9238281250,30,33.0000000000,,,
1.9257812500,30,33.0000000000,,,
1.9277343750,30,24.0000000000,,,
1.9296875000,30,-3.0000000000,,,
1.9316406250,30,-51.0000000000,,,
1.9335937500,30,-87.0000000000,,,
1.9355468750,30,-45.0000000000,,,
1.9375000000,31,-1.0000000000,,,
1.9394531250,31,-14.0000000000,,,
1.9414062500,31,1.0000000000,,,
1.9433593750,31,53.0000000000,,,
1.9453125000,31,32.0000000000,,,
1.9472656250,31,-19.0000000000,,,
1.9492187500,31,-35.0000000000,,,
1.9511718750,31,-12.0000000000,,,
1.9531250000,31,8.0000000000,,,
1.9550781250,31,42.0000000000,,,
1.9570312500,31,76.0000000000,,,
1.9589843750,31,89.0000000000,,,
1.9609375000,31,86.0000000000,,,
1.9628906250,31,136.0000000000,,,
1.9648437500,31,153.0000000000,,,
1.9667968750,31,87.0000000000,,,
1.9687500000,31,18.0000000000,,,
1.9707031250,31,0.0000000000,,,
1.9726562500,31,17.0000000000,,,
1.9746093750,31,28.0000000000,,,
1.9765625000,31,54.0000000000,,,
1.9785156250,31,90.0000000000,,,
1.9804687500,31,76.0000000000,,,
1.9824218750,31,88.0000000000,,,
1.9843750000,31,145.0000000000,,,
1.9863281250,31,166.0000000000,,,
1.9882812500,31,109.0000000000,,,
1.9902343750,31,72.0000000000,,,
1.9921875000,31,87.0000000000,,,
1.9941406250,31,120.0000000000,,,
1.9960937500,31,136.0000000000,,,
1.9980468750,31,119.0000000000,,,
2.0000000000,32,113.0000000000,,,
2.0019531250,32,163.0000000000,,,
2.0039062500,32,214.0000000000,,,
2.0058593750,32,205.0000000000,,,
2.0078125000,32,187.0000000000,,,
2.0097656250,32,156.0000000000,,,
2.0117187500,32,120.0000000000,,,
2.0136718750,32,124.0000000000,,,
2.0156250000,32,130.0000000000,,,
2.0175781250,32,102.0000000000,,,
2.0195312500,32,81.0000000000,,,
2.0214843750,32,106.0000000000,,,
2.0234375000,32,157.0000000000,,,
2.0253906250,32,113.0000000000,,,
2.0273437500,32,67.0000000000,,,
2.0292968750,32,102.0000000000,,,
2.0312500000,32,122.0000000000,,,
2.0332031250,32,104.0000000000,,,
2.0351562500,32,74.0000000000,,,
2.0371093750,32,82.0000000000,,,
2.0390625000,32,91.0000000000,,,
2.0410156250,32,58.0000000000,,,
2.0429687500,32,42.0000000000,,,
2.0449218750,32,70.0000000000,,,
2.0468750000,32,90.0000000000,,,
2.0488281250,32,66.0000000000,,,
2.0507812500,32,18.0000000000,,,
2.0527343750,32,-21.0000000000,,,
2.0546875000,32,-11.0000000000,,,
2.0566406250,32,9.0000000000,,,
2.0585937500,32,-8.0000000000,,,
2.0605468750,32,-38.0000000000,,,
2.0625000000,33,-25.0000000000,,,
2.0644531250,33,0.0000000000,,,
2.0664062500,33,11.0000000000,,,
2.0683593750,33,32.0000000000,,,
2.0703125000,33,21.0000000000,,,
2.0722656250,33,-23.0000000000,,,
2.0742187500,33,-34.0000000000,,,
2.0761718750,33,-45.0000000000,,,
2.0781250000,33,-46.0000000000,,,
2.0800781250,33,1.0000000000,,,
2.0820312500,33,72.0000000000,,,
2.0839843750,33,105.0000000000,,,
2.0859375000,33,55.0000000000,,,
2.0878906250,33,-14.0000000000,,,
2.0898437500,33,28.0000000000,,,
2.0917968750,33,109.0000000000,,,
2.0937500000,33,113.0000000000,,,
2.0957031250,33,22.0000000000,,,
2.0976562500,33,-67.0000000000,,,
2.0996093750,33,-85.0000000000,,,
2.1015625000,33,-36.0000000000,,,
2.1035156250,33,37.0000000000,,,
2.1054687500,33,35.0000000000,,,
2.1074218750,33,-8.0000000000,,,
2.1093750000,33,-34.0000000000,,,
2.1113281250,33,-26.0000000000,,,
2.1132812500,33,-5.0000000000,,,
2.1152343750,33,29.0000000000,,,
2.1171875000,33,36.0000000000,,,
2.1191406250,33,1.0000000000,,,
2.1210937500,33,-22.0000000000,,,
2.1230468750,33,0.0000000000,,,
2.1250000000,34,76.0000000000,,,
2.1269531250,34,91.0000000000,,,
2.1289062500,34,17.0000000000,,,
2.1308593750,34,-34.0000000000,,,
2.1328125000,34,-43.0000000000,,,
2.1347656250,34,-89.0000000000,,,
2.1367187500,34,-137.0000000000,,,
2.1386718750,34,-147.0000000000,,,
2.1406250000,34,-146.0000000000,,,
2.1425781250,34,-113.0000000000,,,
2.1445312500,34,-58.0000000000,,,
2.1464843750,34,-7.0000000000,,,
2.1484375000,34,-4.0000000000,,,
2.1503906250,34,-35.0000000000,,,
2.1523437500,34,-94.0000000000,,,
2.1542968750,34,-105.0000000000,,,
2.1562500000,34,-93.0000000000,,,
2.1582031250,34,-98.0000000000,,,
2.1601562500,34,-106.0000000000,,,
2.1621093750,34,-75.0000000000,,,
2.1640625000,34,-27.0000000000,,,
2.1660156250,34,-44.0000000000,,,
2.1679687500,34,-30.0000000000,,,
2.1699218750,34,3.0000000000,,,
2.1718750000,34,19.0000000000,,,
2.1738281250,34,49.0000000000,,,
2.1757812500,34,35.0000000000,,,
2.1777343750,34,55.0000000000,,,
2.1796875000,34,116.0000000000,,,
2.1816406250,34,108.0000000000,,,
2.1835937500,34,81.0000000000,,,
2.1855468750,34,57.0000000000,,,
2.1875000000,35,85.0000000000,,,
2.1894531250,35,113.0000000000,,,
2.1914062500,35,66.0000000000,,,
2.1933593750,35,54.0000000000,,,
2.1953125000,35,64.0000000000,,,
2.1972656250,35,9.0000000000,,,
2.1992187500,35,9.0000000000,,,
2.2011718750,35,84.0000000000,,,
2.2031250000,35,121.0000000000,,,
2.2050781250,35,86.0000000000,,,
2.2070312500,35,64.0000000000,,,
2.2089843750,35,89.0000000000,,,
2.2109375000,35,48.0000000000,,,
2.2128906250,35,-52.0000000000,,,
2.2148437500,35,-50.0000000000,,,
2.2167968750,35,42.0000000000,,,
2.2187500000,35,64.0000000000,,,
2.2207031250,35,6.0000000000,,,
2.2226562500,35,-40.0000000000,,,
2.2246093750,35,-97.0000000000,,,
2.2265625000,35,-135.0000000000,,,
2.2285156250,35,-90.0000000000,,,
2.2304687500,35,-13.0000000000,,,
2.2324218750,35,-41.0000000000,,,
2.2343750000,35,-113.0000000000,,,
2.2363281250,35,-105.0000000000,,,
2.2382812500,35,-56.0000000000,,,
2.2402343750,35,-14.0000000000,,,
2.2421875000,35,36.0000000000,,,
2.2441406250,35,37.0000000000,,,
2.2460937500,35,41.0000000000,,,
2.2480468750,35,42.0000000000,,,
2.2500000000,36,33.0000000000,,,
2.2519531250,36,52.0000000000,,,
2.2539062500,36,70.0000000000,,,
2.2558593750,36,-14.0000000000,,,
2.2578125000,36,-149.0000000000,,,
2.2597656250,36,-114.0000000000,,,
2.2617187500,36,38.0000000000,,,
2.2636718750,36,146.0000000000,,,
2.2656250000,36,170.0000000000,,,
2.2675781250,36,156.0000000000,,,
2.2695312500,36,97.0000000000,,,
2.2714843750,36,96.0000000000,,,
2.2734375000,36,113.0000000000,,,
2.2753906250,36,74.0000000000,,,
2.2773437500,36,69.0000000000,,,
2.2792968750,36,40.0000000000,,,
2.2812500000,36,20.0000000000,,,
2.2832031250,36,18.0000000000,,,
2.2851562500,36,99.0000000000,,,
2.2871093750,36,140.0000000000,,,
2.2890625000,36,27.0000000000,,,
2.2910156250,36,-17.0000000000,,,
2.2929687500,36,42.0000000000,,,
2.2949218750,36,128.0000000000,,,
2.2968750000,36,166.0000000000,,,
2.2988281250,36,197.0000000000,,,
2.3007812500,36,119.0000000000,,,
2.3027343750,36,-24.0000000000,,,
2.3046875000,36,-72.0000000000,,,
2.3066406250,36,18.0000000000,,,
2.3085937500,36,92.0000000000,,,
2.3105468750,36,92.0000000000,,,
2.3125000000,37,97.0000000000,,,
2.3144531250,37,134.0000000000,,,
2.3164062500,37,49.0000000000,,,
2.3183593750,37,-81.0000000000,,,
2.3203125000,37,-106.0000000000,,,
2.3222656250,37,44.0000000000,,,
2.3242187500,37,247.0000000000,,,
2.3261718750,37,163.0000000000,,,
2.3281250000,37,-5.0000000000,,,
2.3300781250,37,-72.0000000000,,,
2.3320312500,37,-18.0000000000,,,
2.3339843750,37,161.0000000000,,,
2.3359375000,37,232.0000000000,,,
2.3378906250,37,52.0000000000,,,
2.3398437500,37,-113.0000000000,,,
2.3417968750,37,-59.0000000000,,,
2.3437500000,37,-17.0000000000,,,
2.3457031250,37,-12.0000000000,,,
2.3476562500,37,-30.0000000000,,,
2.3496093750,37,-36.0000000000,,,
2.3515625000,37,58.0000000000,,,
2.3535156250,37,69.0000000000,,,
2.3554687500,37,53.0000000000,,,
2.3574218750,37,75.0000000000,,,
2.3593750000,37,59.0000000000,,,
2.3613281250,37,118.0000000000,,,
2.3632812500,37,249.0000000000,,,
2.3652343750,37,285.0000000000,,,
2.3671875000,37,138.0000000000,,,
2.3691406250,37,18.0000000000,,,
2.3710937500,37,58.0000000000,,,
2.3730468750,37,266.0000000000,,,
2.3750000000,38,393.0000000000,,,
2.3769531250,38,149.0000000000,,,
2.3789062500,38,-149.0000000000,,,
2.3808593750,38,-219.0000000000,,,
2.3828125000,38,39.0000000000,,,
2.3847656250,38,145.0000000000,,,
2.3867187500,38,66.0000000000,,,
2.3886718750,38,60.0000000000,,,
2.3906250000,38,140.0000000000,,,
2.3925781250,38,146.0000000000,,,
2.3945312500,38,-54.0000000000,,,
2.3964843750,38,12.0000000000,,,
2.3984375000,38,256.0000000000,,,
2.4003906250,38,181.0000000000,,,
2.4023437500,38,84.0000000000,,,
2.4042968750,38,66.0000000000,,,
2.4062500000,38,-58.0000000000,,,
2.4082031250,38,-230.0000000000,,,
2.4101562500,38,-139.0000000000,,,
2.4121093750,38,-28.0000000000,,,
2.4140625000,38,-49.0000000000,,,
2.4160156250,38,-22.0000000000,,,
2.4179687500,38,25.0000000000,,,
2.4199218750,38,-104.0000000000,,,
2.4218750000,38,-101.0000000000,,,
2.4238281250,38,186.0000000000,,,
2.4257812500,38,377.0000000000,,,
2.4277343750,38,106.0000000000,,,
2.4296875000,38,-215.0000000000,,,
2.4316406250,38,-187.0000000000,,,
2.4335937500,38,-7.0000000000,,,
2.4355468750,38,36.0000000000,,,
2.4375000000,39,69.0000000000,,,
2.4394531250,39,89.0000000000,,,
2.4414062500,39,59.0000000000,,,
2.4433593750,39,32.0000000000,,,
2.4453125000,39,-62.0000000000,,,
2.4472656250,39,-201.0000000000,,,
2.4492187500,39,-139.0000000000,,,
2.4511718750,39,-4.0000000000,,,
2.4531250000,39,56.0000000000,,,
2.4550781250,39,-35.0000000000,,,
2.4570312500,39,-113.0000000000,,,
2.4589843750,39,-55.0000000000,,,
2.4609375000,39,-9.0000000000,,,
2.4628906250,39,83.0000000000,,,
2.4648437500,39,91.0000000000,,,
2.4667968750,39,-38.0000000000,,,
2.4687500000,39,-168.0000000000,,,
2.4707031250,39,-198.0000000000,,,
2.4726562500,39,-130.0000000000,,,
2.4746093750,39,-100.0000000000,,,
2.4765625000,39,-185.0000000000,,,
2.4785156250,39,-158.0000000000,,,
2.4804687500,39,-12.0000000000,,,
2.4824218750,39,139.0000000000,,,
2.4843750000,39,229.0000000000,,,
2.4863281250,39,160.0000000000,,,
2.4882812500,39,35.0000000000,,,
2.4902343750,39,-13.0000000000,,,
2.4921875000,39,23.0000000000,,,
2.4941406250,39,147.0000000000,,,
2.4960937500,39,290.0000000000,,,
2.4980468750,39,122.0000000000,,,
2.5000000000,40,-154.0000000000,,,
2.5019531250,40,-73.0000000000,,,
2.5039062500,40,166.0000000000,,,
2.5058593750,40,230.0000000000,,,
2.5078125000,40,187.0000000000,,,
2.5097656250,40,120.0000000000,,,
2.5117187500,40,50.0000000000,,,
2.5136718750,40,60.0000000000,,,
2.5156250000,40,85.0000000000,,,
2.5175781250,40,96.0000000000,,,
2.5195312500,40,134.0000000000,,,
2.5214843750,40,147.0000000000,,,
2.5234375000,40,74.0000000000,,,
2.5253906250,40,-10.0000000000,,,
2.5273437500,40,-22.0000000000,,,
2.5292968750,40,-9.0000000000,,,
2.5312500000,40,-38.0000000000,,,
2.5332031250,40,-105.0000000000,,,
2.5351562500,40,-182.0000000000,,,
2.5371093750,40,-234.0000000000,,,
2.5390625000,40,-204.0000000000,,,
2.5410156250,40,-141.0000000000,,,
2.5429687500,40,-86.0000000000,,,
2.5449218750,40,-55.0000000000,,,
2.5468750000,40,-58.0000000000,,,
2.5488281250,40,-87.0000000000,,,
2.5507812500,40,-53.0000000000,,,
2.5527343750,40,-22.0000000000,,,
2.5546875000,40,-58.0000000000,,,
2.5566406250,40,-116.0000000000,,,
2.5585937500,40,-98.0000000000,,,
2.5605468750,40,-28.0000000000,,,
2.5625000000,41,26.0000000000,,,
2.5644531250,41,65.0000000000,,,
2.5664062500,41,55.0000000000,,,
2.5683593750,41,20.0000000000,,,
2.5703125000,41,-37.0000000000,,,
2.5722656250,41,-75.0000000000,,,
2.5742187500,41,-55.0000000000,,,
2.5761718750,41,-26.0000000000,,,
2.5781250000,41,-21.0000000000,,,
2.5800781250,41,-41.0000000000,,,
2.5820312500,41,-56.0000000000,,,
2.5839843750,41,-71.0000000000,,,
2.5859375000,41,-34.0000000000,,,
2.5878906250,41,-13.0000000000,,,
2.5898437500,41,-51.0000000000,,,
2.5917968750,41,-84.0000000000,,,
2.5937500000,41,-126.0000000000,,,
2.5957031250,41,-162.0000000000,,,
2.5976562500,41,-124.0000000000,,,
2.5996093750,41,-60.0000000000,,,
2.6015625000,41,-20.0000000000,,,
2.6035156250,41,-26.0000000000,,,
2.6054687500,41,-22.0000000000,,,
2.6074218750,41,-25.0000000000,,,
2.6093750000,41,-55.0000000000,,,
2.6113281250,41,-85.0000000000,,,
2.6132812500,41,-91.0000000000,,,
2.6152343750,41,-103.0000000000,,,
2.6171875000,41,-126.0000000000,,,
2.6191406250,41,-133.0000000000,,,
2.6210937500,41,-115.0000000000,,,
2.6230468750,41,-98.0000000000,,,
2.6250000000,42,-71.0000000000,,,
2.6269531250,42,-37.0000000000,,,
2.6289062500,42,22.0000000000,,,
2.6308593750,42,83.0000000000,,,
2.6328125000,42,129.0000000000,,,
2.6347656250,42,113.0000000000,,,
2.6367187500,42,60.0000000000,,,
2.6386718750,42,5.0000000000,,,
2.6406250000,42,5.0000000000,,,
2.6425781250,42,26.0000000000,,,
2.6445312500,42,39.0000000000,,,
2.6464843750,42,100.0000000000,,,
2.6484375000,42,116.0000000000,,,
2.6503906250,42,60.0000000000,,,
2.6523437500,42,67.0000000000,,,
2.6542968750,42,165.0000000000,,,
2.6562500000,42,266.0000000000,,,
2.6582031250,42,261.0000000000,,,
2.6601562500,42,193.0000000000,,,
2.6621093750,42,136.0000000000,,,
2.6640625000,42,112.0000000000,,,
2.6660156250,42,108.0000000000,,,
2.6679687500,42,119.0000000000,,,
2.6699218750,42,117.0000000000,,,
2.6718750000,42,82.0000000000,,,
2.6738281250,42,61.0000000000,,,
2.6757812500,42,68.0000000000,,,
2.6777343750,42,145.0000000000,,,
2.6796875000,42,272.0000000000,,,
2.6816406250,42,234.0000000000,,,
2.6835937500,42,138.0000000000,,,
2.6855468750,42,150.0000000000,,,
2.6875000000,43,219.0000000000,,,
2.6894531250,43,242.0000000000,,,
2.6914062500,43,197.0000000000,,,
2.6933593750,43,192.0000000000,,,
2.6953125000,43,208.0000000000,,,
2.6972656250,43,203.0000000000,,,
2.6992187500,43,212.0000000000,,,
2.7011718750,43,198.0000000000,,,
2.7031250000,43,136.0000000000,,,
2.7050781250,43,151.0000000000,,,
2.7070312500,43,151.0000000000,,,
2.7089843750,43,60.0000000000,,,
2.7109375000,43,44.0000000000,,,
2.7128906250,43,74.0000000000,,,
2.7148437500,43,32.0000000000,,,
2.7167968750,43,2.0000000000,,,
2.7187500000,43,49.0000000000,,,
2.7207031250,43,121.0000000000,,,
2.7226562500,43,186.0000000000,,,
2.7246093750,43,203.0000000000,,,
2.7265625000,43,203.0000000000,,,
2.7285156250,43,131.0000000000,,,
2.7304687500,43,98.0000000000,,,
2.7324218750,43,112.0000000000,,,
2.7343750000,43,162.0000000000,,,
2.7363281250,43,253.0000000000,,,
2.7382812500,43,298.0000000000,,,
2.7402343750,43,184.0000000000,,,
2.7421875000,43,34.0000000000,,,
2.7441406250,43,93.0000000000,,,
2.7460937500,43,219.0000000000,,,
2.7480468750,43,163.0000000000,,,
2.7500000000,44,7.0000000000,,,
2.7519531250,44,-56.0000000000,,,
2.7539062500,44,-1.0000000000,,,
2.7558593750,44,73.0000000000,,,
2.7578125000,44,44.0000000000,,,
2.7597656250,44,-14.0000000000,,,
2.7617187500,44,23.0000000000,,,
2.7636718750,44,115.0000000000,,,
2.7656250000,44,149.0000000000,,,
2.7675781250,44,133.0000000000,,,
2.7695312500,44,119.0000000000,,,
2.7714843750,44,67.0000000000,,,
2.7734375000,44,0.0000000000,,,
2.7753906250,44,2.0000000000,,,
2.7773437500,44,-25.0000000000,,,
2.7792968750,44,-29.0000000000,,,
2.7812500000,44,-7.0000000000,,,
2.7832031250,44,9.0000000000,,,
2.7851562500,44,12.0000000000,,,
2.7871093750,44,-25.0000000000,,,
2.7890625000,44,61.0000000000,,,
2.7910156250,44,196.0000000000,,,
2.7929687500,44,212.0000000000,,,
2.7949218750,44,135.0000000000,,,
2.7968750000,44,69.0000000000,,,
2.7988281250,44,67.0000000000,,,
2.8007812500,44,89.0000000000,,,
2.8027343750,44,83.0000000000,,,
2.8046875000,44,71.0000000000,,,
2.8066406250,44,103.0000000000,,,
2.8085937500,44,80.0000000000,,,
2.8105468750,44,22.0000000000,,,
2.8125000000,45,34.0000000000,,,
2.8144531250,45,106.0000000000,,,
2.8164062500,45,135.0000000000,,,
2.8183593750,45,84.0000000000,,,
2.8203125000,45,-34.0000000000,,,
2.8222656250,45,-107.0000000000,,,
2.8242187500,45,-34.0000000000,,,
2.8261718750,45,72.0000000000,,,
2.8281250000,45,121.0000000000,,,
2.8300781250,45,156.0000000000,,,
2.8320312500,45,135.0000000000,,,
2.8339843750,45,90.0000000000,,,
2.8359375000,45,123.0000000000,,,
2.8378906250,45,138.0000000000,,,
2.8398437500,45,60.0000000000,,,
2.8417968750,45,12.0000000000,,,
2.8437500000,45,41.0000000000,,,
2.8457031250,45,113.0000000000,,,
2.8476562500,45,171.0000000000,,,
2.8496093750,45,161.0000000000,,,
2.8515625000,45,88.0000000000,,,
2.8535156250,45,42.0000000000,,,
2.8554687500,45,114.0000000000,,,
2.8574218750,45,218.0000000000,,,
2.8593750000,45,228.0000000000,,,
2.8613281250,45,145.0000000000,,,
2.8632812500,45,53.0000000000,,,
2.8652343750,45,70.0000000000,,,
2.8671875000,45,161.0000000000,,,
2.8691406250,45,200.0000000000,,,
2.8710937500,45,217.0000000000,,,
2.8730468750,45,178.0000000000,,,
2.8750000000,46,74.0000000000,,,
2.8769531250,46,-10.0000000000,,,
2.8789062500,46,-38.0000000000,,,
2.8808593750,46,-46.0000000000,,,
2.8828125000,46,-40.0000000000,,,
2.8847656250,46,-21.0000000000,,,
2.8867187500,46,-11.0000000000,,,
2.8886718750,46,-3.0000000000,,,
2.8906250000,46,90.0000000000,,,
2.8925781250,46,192.0000000000,,,
2.8945312500,46,148.0000000000,,,
2.8964843750,46,29.0000000000,,,
2.8984375000,46,-6.0000000000,,,
2.9003906250,46,75.0000000000,,,
2.9023437500,46,162.0000000000,,,
2.9042968750,46,151.0000000000,,,
2.9062500000,46,108.0000000000,,,
2.9082031250,46,138.0000000000,,,
2.9101562500,46,193.0000000000,,,
2.9121093750,46,176.0000000000,,,
2.9140625000,46,146.0000000000,,,
2.9160156250,46,173.0000000000,,,
2.9179687500,46,227.0000000000,,,
2.9199218750,46,198.0000000000,33552,2.9199218750,0.0000000000
2.9218750000,46,166.0000000000,,,
2.9238281250,46,138.0000000000,,,
2.9257812500,46,102.0000000000,,,
2.9277343750,46,117.0000000000,,,
2.9296875000,46,188.0000000000,,,
2.9316406250,46,225.0000000000,,,
2.9335937500,46,181.0000000000,,,
2.9355468750,46,68.0000000000,,,
2.9375000000,47,-49.0000000000,,,
2.9394531250,47,-56.0000000000,,,
2.9414062500,47,0.0000000000,,,
2.9433593750,47,16.0000000000,,,
2.9453125000,47,0.0000000000,,,
2.9472656250,47,-25.0000000000,,,
2.9492187500,47,19.0000000000,,,
2.9511718750,47,86.0000000000,,,
2.9531250000,47,92.0000000000,,,
2.9550781250,47,76.0000000000,,,
2.9570312500,47,74.0000000000,,,
2.9589843750,47,84.0000000000,,,
2.9609375000,47,75.0000000000,,,
2.9628906250,47,58.0000000000,,,
2.9648437500,47,37.0000000000,,,
2.9667968750,47,49.0000000000,,,
2.9687500000,47,81.0000000000,,,
2.9707031250,47,53.0000000000,,,
2.9726562500,47,40.0000000000,,,
2.9746093750,47,19.0000000000,,,
2.9765625000,47,5.0000000000,,,
2.9785156250,47,44.0000000000,,,
2.9804687500,47,49.0000000000,,,
2.9824218750,47,53.0000000000,,,
2.9843750000,47,-8.0000000000,,,
2.9863281250,47,-28.0000000000,,,
2.9882812500,47,1.0000000000,,,
2.9902343750,47,6.0000000000,,,
2.9921875000,47,-39.0000000000,,,
2.9941406250,47,-38.0000000000,,,
2.9960937500,47,-10.0000000000,,,
2.9980468750,47,-34.0000000000,,,
3.0000000000,48,-39.0000000000,,,
3.0019531250,48,-21.0000000000,,,
3.0039062500,48,-24.0000000000,,,
3.0058593750,48,3.0000000000,,,
3.0078125000,48,43.0000000000,,,
3.0097656250,48,24.0000000000,,,
3.0117187500,48,18.0000000000,,,
3.0136718750,48,7.0000000000,,,
3.0156250000,48,-91.0000000000,,,
3.0175781250,48,-122.0000000000,,,
3.0195312500,48,-50.0000000000,,,
3.0214843750,48,-5.0000000000,,,
3.0234375000,48,-21.0000000000,,,
3.0253906250,48,-49.0000000000,,,
3.0273437500,48,-54.0000000000,,,
3.0292968750,48,-45.0000000000,,,
3.0312500000,48,-53.0000000000,,,
3.0332031250,48,-87.0000000000,,,
3.0351562500,48,-132.0000000000,,,
3.0371093750,48,-186.0000000000,,,
3.0390625000,48,-184.0000000000,,,
3.0410156250,48,-72.0000000000,,,
3.0429687500,48,35.0000000000,,,
3.0449218750,48,64.0000000000,,,
3.0468750000,48,53.0000000000,,,
3.0488281250,48,6.0000000000,,,
3.0507812500,48,3.0000000000,,,
3.0527343750,48,33.0000000000,,,
3.0546875000,48,22.0000000000,,,
3.0566406250,48,-19.0000000000,,,
3.0585937500,48,-10.0000000000,,,
3.0605468750,48,9.0000000000,,,
3.0625000000,49,-7.0000000000,,,
3.0644531250,49,-36.0000000000,,,
3.0664062500,49,-22.0000000000,,,
3.0683593750,49,-4.0000000000,,,
3.0703125000,49,-5.0000000000,,,
3.0722656250,49,13.0000000000,,,
3.0742187500,49,55.0000000000,,,
3.0761718750,49,72.0000000000,,,
3.0781250000,49,33.0000000000,,,
3.0800781250,49,-6.0000000000,,,
3.0820312500,49,-7.0000000000,,,
3.0839843750,49,-21.0000000000,,,
3.0859375000,49,-24.0000000000,,,
3.0878906250,49,34.0000000000,,,
3.0898437500,49,68.0000000000,,,
3.0917968750,49,68.0000000000,,,
3.0937500000,49,29.0000000000,,,
3.0957031250,49,-46.0000000000,,,
3.0976562500,49,-97.0000000000,,,
3.0996093750,49,-42.0000000000,,,
3.1015625000,49,57.0000000000,,,
3.1035156250,49,51.0000000000,,,
3.1054687500,49,-50.0000000000,,,
3.1074218750,49,-116.0000000000,,,
3.1093750000,49,-103.0000000000,,,
3.1113281250,49,-65.0000000000,,,
3.1132812500,49,-24.0000000000,,,
3.1152343750,49,22.0000000000,,,
3.1171875000,49,64.0000000000,,,
3.1191406250,49,61.0000000000,,,
3.1210937500,49,32.0000000000,,,
3.1230468750,49,-18.0000000000,,,
3.1250000000,50,-11.0000000000,,,
3.1269531250,50,49.0000000000,,,
3.1289062500,50,106.0000000000,,,
3.1308593750,50,155.0000000000,,,
3.1328125000,50,129.0000000000,,,
3.1347656250,50,-2.0000000000,,,
3.1367187500,50,-69.0000000000,,,
3.1386718750,50,-52.0000000000,,,
3.1406250000,50,-13.0000000000,,,
3.1425781250,50,-29.0000000000,,,
3.1445312500,50,-91.0000000000,,,
3.1464843750,50,-120.0000000000,,,
3.1484375000,50,-122.0000000000,,,
3.1503906250,50,-82.0000000000,,,
3.1523437500,50,-13.0000000000,,,
3.1542968750,50,26.0000000000,,,
3.1562500000,50,9.0000000000,,,
3.1582031250,50,-25.0000000000,,,
3.1601562500,50,-7.0000000000,,,
3.1621093750,50,40.0000000000,,,
3.1640625000,50,49.0000000000,,,
3.1660156250,50,20.0000000000,,,
3.1679687500,50,-9.0000000000,,,
3.1699218750,50,-20.0000000000,,,
3.1718750000,50,-1.0000000000,,,
3.1738281250,50,32.0000000000,,,
3.1757812500,50,34.0000000000,,,
3.1777343750,50,25.0000000000,,,
3.1796875000,50,9.0000000000,,,
3.1816406250,50,2.0000000000,,,
3.1835937500,50,-6.0000000000,,,
3.1855468750,50,5.0000000000,,,
3.1875000000,51,49.0000000000,,,
3.1894531250,51,72.0000000000,,,
3.1914062500,51,68.0000000000,,,
3.1933593750,51,24.0000000000,,,
3.1953125000,51,-6.0000000000,,,
3.1972656250,51,4.0000000000,,,
3.1992187500,51,8.0000000000,,,
3.2011718750,51,-26.0000000000,,,
3.2031250000,51,-74.0000000000,,,
3.2050781250,51,-66.0000000000,,,
3.2070312500,51,-30.0000000000,,,
3.2089843750,51,-35.0000000000,,,
3.2109375000,51,-71.0000000000,,,
3.2128906250,51,-92.0000000000,,,
3.2148437500,51,-106.0000000000,,,
3.2167968750,51,-114.0000000000,,,
3.2187500000,51,-108.0000000000,,,
3.2207031250,51,-92.0000000000,,,
3.2226562500,51,-100.0000000000,,,
3.2246093750,51,-116.0000000000,,,
3.2265625000,51,-110.0000000000,,,
3.2285156250,51,-67.0000000000,,,
3.2304687500,51,-33.0000000000,,,
3.2324218750,51,-40.0000000000,,,
3.2343750000,51,-60.0000000000,,,
3.2363281250,51,-61.0000000000,,,
3.2382812500,51,-69.0000000000,,,
3.2402343750,51,-83.0000000000,,,
3.2421875000,51,-97.0000000000,,,
3.2441406250,51,-93.0000000000,,,
3.2460937500,51,-41.0000000000,,,
3.2480468750,51,-3.0000000000,,,
3.2500000000,52,-8.0000000000,,,
3.2519531250,52,-11.0000000000,,,
3.2539062500,52,26.0000000000,,,
3.2558593750,52,72.0000000000,,,
3.2578125000,52,70.0000000000,,,
3.2597656250,52,36.0000000000,,,
3.2617187500,52,10.0000000000,,,
3.2636718750,52,-26.0000000000,,,
3.2656250000,52,-49.0000000000,,,
3.2675781250,52,8.0000000000,,,
3.2695312500,52,55.0000000000,,,
3.2714843750,52,17.0000000000,,,
3.2734375000,52,-44.0000000000,,,
3.2753906250,52,-54.0000000000,,,
3.2773437500,52,11.0000000000,,,
3.2792968750,52,57.0000000000,,,
3.2812500000,52,40.0000000000,,,
3.2832031250,52,-10.0000000000,,,
3.2851562500,52,-42.0000000000,,,
3.2871093750,52,20.0000000000,,,
3.2890625000,52,118.0000000000,,,
3.2910156250,52,156.0000000000,,,
3.2929687500,52,130.0000000000,,,
3.2949218750,52,68.0000000000,,,
3.2968750000,52,26.0000000000,,,
3.2988281250,52,40.0000000000,,,
3.3007812500,52,56.0000000000,,,
3.3027343750,52,53.0000000000,,,
3.3046875000,52,42.0000000000,,,
3.3066406250,52,41.0000000000,,,
3.3085937500,52,39.0000000000,,,
3.3105468750,52,18.0000000000,,,
3.3125000000,53,37.0000000000,,,
3.3144531250,53,85.0000000000,,,
3.3164062500,53,81.0000000000,,,
3.3183593750,53,116.0000000000,,,
3.3203125000,53,115.0000000000,,,
3.3222656250,53,55.0000000000,,,
3.3242187500,53,17.0000000000,,,
3.3261718750,53,-19.0000000000,,,
3.3281250000,53,-22.0000000000,,,
3.3300781250,53,39.0000000000,,,
3.3320312500,53,61.0000000000,,,
3.3339843750,53,33.0000000000,,,
3.3359375000,53,-3.0000000000,,,
3.3378906250,53,-27.0000000000,,,
3.3398437500,53,-11.0000000000,,,
3.3417968750,53,16.0000000000,,,
3.3437500000,53,54.0000000000,,,
3.3457031250,53,72.0000000000,,,
3.3476562500,53,56.0000000000,,,
3.3496093750,53,18.0000000000,,,
3.3515625000,53,-70.0000000000,,,
3.3535156250,53,-110.0000000000,,,
3.3554687500,53,28.0000000000,,,
3.3574218750,53,115.0000000000,,,
3.3593750000,53,68.0000000000,,,
3.3613281250,53,51.0000000000,,,
3.3632812500,53,38.0000000000,,,
3.3652343750,53,10.0000000000,,,
3.3671875000,53,50.0000000000,,,
3.3691406250,53,98.0000000000,,,
3.3710937500,53,80.0000000000,,,
3.3730468750,53,11.0000000000,,,
3.3750000000,54,-25.0000000000,,,
3.3769531250,54,-10.0000000000,,,
3.3789062500,54,22.0000000000,,,
3.3808593750,54,51.0000000000,,,
3.3828125000,54,-2.0000000000,,,
3.3847656250,54,-65.0000000000,,,
3.3867187500,54,-17.0000000000,,,
3.3886718750,54,35.0000000000,,,
3.3906250000,54,-40.0000000000,,,
3.3925781250,54,-142.0000000000,,,
3.3945312500,54,-138.0000000000,,,
3.3964843750,54,-30.0000000000,,,
3.3984375000,54,76.0000000000,,,
3.4003906250,54,88.0000000000,,,
3.4023437500,54,91.0000000000,,,
3.4042968750,54,164.0000000000,,,
3.4062500000,54,91.0000000000,,,
3.4082031250,54,-101.0000000000,,,
3.4101562500,54,-61.0000000000,,,
3.4121093750,54,75.0000000000,,,
3.4140625000,54,80.0000000000,,,
3.4160156250,54,-4.0000000000,,,
3.4179687500,54,-137.0000000000,,,
3.4199218750,54,-179.0000000000,,,
3.4218750000,54,-85.0000000000,,,
3.4238281250,54,-8.0000000000,,,
3.4257812500,54,-46.0000000000,,,
3.4277343750,54,-41.0000000000,,,
3.4296875000,54,-26.0000000000,,,
3.4316406250,54,-58.0000000000,,,
3.4335937500,54,-138.0000000000,,,
3.4355468750,54,-154.0000000000,,,
3.4375000000,55,-52.0000000000,,,
3.4394531250,55,100.0000000000,,,
3.4414062500,55,83.0000000000,,,
3.4433593750,55,-59.0000000000,,,
3.4453125000,55,-41.0000000000,,,
3.4472656250,55,66.0000000000,,,
3.4492187500,55,77.0000000000,,,
3.4511718750,55,108.0000000000,,,
3.4531250000,55,138.0000000000,,,
3.4550781250,55,154.0000000000,,,
3.4570312500,55,209.0000000000,,,
3.4589843750,55,261.0000000000,,,
3.4609375000,55,204.0000000000,,,
3.4628906250,55,136.0000000000,,,
3.4648437500,55,125.0000000000,,,
3.4667968750,55,171.0000000000,,,
3.4687500000,55,185.0000000000,,,
3.4707031250,55,140.0000000000,,,
3.4726562500,55,104.0000000000,,,
3.4746093750,55,49.0000000000,,,
3.4765625000,55,18.0000000000,,,
3.4785156250,55,76.0000000000,,,
3.4804687500,55,134.0000000000,,,
3.4824218750,55,102.0000000000,,,
3.4843750000,55,50.0000000000,,,
3.4863281250,55,3.0000000000,,,
3.4882812500,55,1.0000000000,,,
3.4902343750,55,81.0000000000,,,
3.4921875000,55,140.0000000000,,,
3.4941406250,55,133.0000000000,,,
3.4960937500,55,161.0000000000,,,
3.4980468750,55,141.0000000000,,,
3.5000000000,56,115.0000000000,,,
3.5019531250,56,116.0000000000,,,
3.5039062500,56,153.0000000000,,,
3.5058593750,56,220.0000000000,,,
3.5078125000,56,284.0000000000,,,
3.5097656250,56,301.0000000000,,,
3.5117187500,56,276.0000000000,,,
3.5136718750,56,347.0000000000,,,
3.5156250000,56,317.0000000000,,,
3.5175781250,56,156.0000000000,,,
3.5195312500,56,114.0000000000,,,
3.5214843750,56,166.0000000000,,,
3.5234375000,56,212.0000000000,,,
3.5253906250,56,109.0000000000,,,
3.5273437500,56,-51.0000000000,,,
3.5292968750,56,-45.0000000000,,,
3.5312500000,56,50.0000000000,,,
3.5332031250,56,87.0000000000,,,
3.5351562500,56,60.0000000000,,,
3.5371093750,56,51.0000000000,,,
3.5390625000,56,13.0000000000,,,
3.5410156250,56,-11.0000000000,,,
3.5429687500,56,7.0000000000,,,
3.5449218750,56,59.0000000000,,,
3.5468750000,56,185.0000000000,,,
3.5488281250,56,273.0000000000,,,
3.5507812500,56,311.0000000000,,,
3.5527343750,56,276.0000000000,,,
3.5546875000,56,327.0000000000,,,
3.5566406250,56,403.0000000000,,,
3.5585937500,56,358.0000000000,,,
3.5605468750,56,170.0000000000,,,
3.5625000000,57,48.0000000000,,,
3.5644531250,57,3.0000000000,,,
3.5664062500,57,-38.0000000000,,,
3.5683593750,57,-71.0000000000,,,
3.5703125000,57,-153.0000000000,,,
3.5722656250,57,-266.0000000000,,,
3.5742187500,57,-323.0000000000,,,
3.5761718750,57,-318.0000000000,,,
3.5781250000,57,-185.0000000000,,,
3.5800781250,57,97.0000000000,,,
3.5820312500,57,331.0000000000,,,
3.5839843750,57,294.0000000000,,,
3.5859375000,57,178.0000000000,,,
3.5878906250,57,340.0000000000,,,
3.5898437500,57,538.0000000000,,,
3.5917968750,57,650.0000000000,,,
3.5937500000,57,506.0000000000,,,
3.5957031250,57,186.0000000000,,,
3.5976562500,57,32.0000000000,,,
3.5996093750,57,-83.0000000000,,,
3.6015625000,57,-257.0000000000,,,
3.6035156250,57,-332.0000000000,,,
3.6054687500,57,-280.0000000000,,,
3.6074218750,57,-219.0000000000,,,
3.6093750000,57,-163.0000000000,,,
3.6113281250,57,-10.0000000000,,,
3.6132812500,57,2.0000000000,,,
3.6152343750,57,-178.0000000000,,,
3.6171875000,57,-333.0000000000,,,
3.6191406250,57,-321.0000000000,,,
3.6210937500,57,-483.0000000000,,,
3.6230468750,57,-796.0000000000,,,
3.6250000000,58,-750.0000000000,,,
3.6269531250,58,-362.0000000000,,,
3.6289062500,58,-253.0000000000,,,
3.6308593750,58,-345.0000000000,,,
3.6328125000,58,-116.0000000000,,,
3.6347656250,58,205.0000000000,,,
3.6367187500,58,326.0000000000,,,
3.6386718750,58,172.0000000000,,,
3.6406250000,58,7.0000000000,,,
3.6425781250,58,-82.0000000000,,,
3.6445312500,58,-315.0000000000,,,
3.6464843750,58,-651.0000000000,,,
3.6484375000,58,-897.0000000000,,,
3.6503906250,58,-855.0000000000,,,
3.6523437500,58,-507.0000000000,,,
3.6542968750,58,-53.0000000000,,,
3.6562500000,58,267.0000000000,,,
3.6582031250,58,327.0000000000,,,
3.6601562500,58,33.0000000000,,,
3.6621093750,58,-132.0000000000,,,
3.6640625000,58,-139.0000000000,,,
3.6660156250,58,-87.0000000000,,,
3.6679687500,58,4.0000000000,,,
3.6699218750,58,87.0000000000,,,
3.6718750000,58,150.0000000000,,,
3.6738281250,58,183.0000000000,,,
3.6757812500,58,6.0000000000,,,
3.6777343750,58,-189.0000000000,,,
3.6796875000,58,-70.0000000000,,,
3.6816406250,58,185.0000000000,,,
3.6835937500,58,262.0000000000,,,
3.6855468750,58,196.0000000000,,,
3.6875000000,59,134.0000000000,,,
3.6894531250,59,24.0000000000,,,
3.6914062500,59,-100.0000000000,,,
3.6933593750,59,-23.0000000000,,,
3.6953125000,59,164.0000000000,,,
3.6972656250,59,236.0000000000,,,
3.6992187500,59,262.0000000000,,,
3.7011718750,59,267.0000000000,,,
3.7031250000,59,243.0000000000,,,
3.7050781250,59,205.0000000000,,,
3.7070312500,59,151.0000000000,,,
3.7089843750,59,84.0000000000,,,
3.7109375000,59,-59.0000000000,,,
3.7128906250,59,-89.0000000000,,,
3.7148437500,59,57.0000000000,,,
3.7167968750,59,236.0000000000,,,
3.7187500000,59,183.0000000000,,,
3.7207031250,59,144.0000000000,,,
3.7226562500,59,504.0000000000,,,
3.7246093750,59,664.0000000000,,,
3.7265625000,59,146.0000000000,,,
3.7285156250,59,-249.0000000000,,,
3.7304687500,59,-141.0000000000,,,
3.7324218750,59,64.0000000000,,,
3.7343750000,59,20.0000000000,,,
3.7363281250,59,-203.0000000000,,,
3.7382812500,59,-365.0000000000,,,
3.7402343750,59,-296.0000000000,,,
3.7421875000,59,-7.0000000000,,,
3.7441406250,59,413.0000000000,,,
3.7460937500,59,838.0000000000,,,
3.7480468750,59,1122.0000000000,,,
3.7500000000,60,983.0000000000,,,
3.7519531250,60,552.0000000000,,,
3.7539062500,60,196.0000000000,,,
3.7558593750,60,6.0000000000,,,
3.7578125000,60,121.0000000000,,,
3.7597656250,60,384.0000000000,,,
3.7617187500,60,283.0000000000,,,
3.7636718750,60,-146.0000000000,,,
3.7656250000,60,-394.0000000000,,,
3.7675781250,60,-376.0000000000,,,
3.7695312500,60,-254.0000000000,,,
3.7714843750,60,-161.0000000000,,,
3.7734375000,60,-101.0000000000,,,
3.7753906250,60,-20.0000000000,,,
3.7773437500,60,138.0000000000,,,
3.7792968750,60,183.0000000000,,,
3.7812500000,60,101.0000000000,,,
3.7832031250,60,118.0000000000,,,
3.7851562500,60,198.0000000000,,,
3.7871093750,60,194.0000000000,,,
3.7890625000,60,199.0000000000,,,
3.7910156250,60,181.0000000000,,,
3.7929687500,60,24.0000000000,,,
3.7949218750,60,-113.0000000000,,,
3.7968750000,60,-115.0000000000,,,
3.7988281250,60,-6.0000000000,,,
3.8007812500,60,82.0000000000,,,
3.8027343750,60,85.0000000000,,,
3.8046875000,60,37.0000000000,,,
3.8066406250,60,10.0000000000,,,
3.8085937500,60,41.0000000000,,,
3.8105468750,60,136.0000000000,,,
3.8125000000,61,220.0000000000,,,
3.8144531250,61,233.0000000000,,,
3.8164062500,61,205.0000000000,,,
3.8183593750,61,129.0000000000,,,
3.8203125000,61,52.0000000000,,,
3.8222656250,61,43.0000000000,,,
3.8242187500,61,86.0000000000,,,
3.8261718750,61,119.0000000000,,,
3.8281250000,61,144.0000000000,,,
3.8300781250,61,152.0000000000,,,
3.8320312500,61,139.0000000000,,,
3.8339843750,61,167.0000000000,,,
3.8359375000,61,202.0000000000,,,
3.8378906250,61,179.0000000000,,,
3.8398437500,61,120.0000000000,,,
3.8417968750,61,67.0000000000,,,
3.8437500000,61,103.0000000000,,,
3.8457031250,61,186.0000000000,,,
3.8476562500,61,199.0000000000,,,
3.8496093750,61,179.0000000000,,,
3.8515625000,61,166.0000000000,,,
3.8535156250,61,167.0000000000,,,
3.8554687500,61,151.0000000000,,,
3.8574218750,61,91.0000000000,,,
3.8593750000,61,26.0000000000,,,
3.8613281250,61,6.0000000000,,,
3.8632812500,61,42.0000000000,,,
3.8652343750,61,43.0000000000,,,
3.8671875000,61,-28.0000000000,,,
3.8691406250,61,-78.0000000000,,,
3.8710937500,61,-70.0000000000,,,
3.8730468750,61,-13.0000000000,,,
3.8750000000,62,2.0000000000,,,
3.8769531250,62,-6.0000000000,,,
3.8789062500,62,57.0000000000,,,
3.8808593750,62,91.0000000000,,,
3.8828125000,62,41.0000000000,,,
3.8847656250,62,-18.0000000000,,,
3.8867187500,62,-58.0000000000,,,
3.8886718750,62,-25.0000000000,,,
3.8906250000,62,49.0000000000,,,
3.8925781250,62,130.0000000000,,,
3.8945312500,62,135.0000000000,,,
3.8964843750,62,97.0000000000,,,
3.8984375000,62,103.0000000000,,,
3.9003906250,62,124.0000000000,,,
3.9023437500,62,162.0000000000,,,
3.9042968750,62,152.0000000000,,,
3.9062500000,62,114.0000000000,,,
3.9082031250,62,128.0000000000,,,
3.9101562500,62,141.0000000000,,,
3.9121093750,62,136.0000000000,,,
3.9140625000,62,165.0000000000,,,
3.9160156250,62,198.0000000000,,,
3.9179687500,62,204.0000000000,,,
3.9199218750,62,186.0000000000,,,
3.9218750000,62,161.0000000000,,,
3.9238281250,62,114.0000000000,,,
3.9257812500,62,45.0000000000,,,
3.9277343750,62,114.0000000000,,,
3.9296875000,62,246.0000000000,,,
3.9316406250,62,272.0000000000,,,
3.9335937500,62,203.0000000000,,,
3.9355468750,62,156.0000000000,,,
3.9375000000,63,200.0000000000,,,
3.9394531250,63,228.0000000000,,,
3.9414062500,63,146.0000000000,,,
3.9433593750,63,49.0000000000,,,
3.9453125000,63,20.0000000000,,,
3.9472656250,63,56.0000000000,,,
3.9492187500,63,75.0000000000,,,
3.9511718750,63,157.0000000000,,,
3.9531250000,63,247.0000000000,,,
3.9550781250,63,257.0000000000,,,
3.9570312500,63,275.0000000000,,,
3.9589843750,63,301.0000000000,,,
3.9609375000,63,211.0000000000,,,
3.9628906250,63,82.0000000000,,,
3.9648437500,63,98.0000000000,,,
3.9667968750,63,176.0000000000,,,
3.9687500000,63,194.0000000000,,,
3.9707031250,63,116.0000000000,,,
3.9726562500,63,43.0000000000,,,
3.9746093750,63,67.0000000000,,,
3.9765625000,63,122.0000000000,,,
3.9785156250,63,176.0000000000,,,
3.9804687500,63,208.0000000000,,,
3.9824218750,63,152.0000000000,,,
3.9843750000,63,84.0000000000,,,
3.9863281250,63,80.0000000000,,,
3.9882812500,63,103.0000000000,,,
3.9902343750,63,106.0000000000,,,
3.9921875000,63,105.0000000000,,,
3.9941406250,63,71.0000000000,,,
3.9960937500,63,27.0000000000,,,
3.9980468750,63,41.0000000000,,,
4.0000000000,64,60.0000000000,,,
4.0019531250,64,99.0000000000,,,
4.0039062500,64,139.0000000000,,,
4.0058593750,64,87.0000000000,,,
4.0078125000,64,9.0000000000,,,
4.0097656250,64,-1.0000000000,,,
4.0117187500,64,16.0000000000,,,
4.0136718750,64,42.0000000000,,,
4.0156250000,64,89.0000000000,,,
4.0175781250,64,177.0000000000,,,
4.0195312500,64,144.0000000000,,,
4.0214843750,64,37.0000000000,,,
4.0234375000,64,12.0000000000,,,
4.0253906250,64,58.0000000000,,,
4.0273437500,64,107.0000000000,,,
4.0292968750,64,148.0000000000,,,
4.0312500000,64,149.0000000000,,,
4.0332031250,64,90.0000000000,,,
4.0351562500,64,27.0000000000,,,
4.0371093750,64,23.0000000000,,,
4.0390625000,64,80.0000000000,,,
4.0410156250,64,164.0000000000,,,
4.0429687500,64,149.0000000000,,,
4.0449218750,64,61.0000000000,,,
4.0468750000,64,-25.0000000000,,,
4.0488281250,64,-25.0000000000,,,
4.0507812500,64,65.0000000000,,,
4.0527343750,64,160.0000000000,,,
4.0546875000,64,204.0000000000,,,
4.0566406250,64,157.0000000000,,,
4.0585937500,64,70.0000000000,,,
4.0605468750,64,39.0000000000,,,
4.0625000000,65,97.0000000000,,,
4.0644531250,65,149.0000000000,,,
4.0664062500,65,137.0000000000,,,
4.0683593750,65,48.0000000000,,,
4.0703125000,65,-49.0000000000,,,
4.0722656250,65,-85.0000000000,,,
4.0742187500,65,-83.0000000000,,,
4.0761718750,65,-36.0000000000,,,
4.0781250000,65,41.0000000000,,,
4.0800781250,65,96.0000000000,,,
4.0820312500,65,57.0000000000,,,
4.0839843750,65,40.0000000000,,,
4.0859375000,65,50.0000000000,,,
4.0878906250,65,33.0000000000,,,
4.0898437500,65,60.0000000000,,,
4.0917968750,65,103.0000000000,,,
4.0937500000,65,59.0000000000,,,
4.0957031250,65,8.0000000000,,,
4.0976562500,65,-20.0000000000,,,
4.0996093750,65,-57.0000000000,,,
4.1015625000,65,-29.0000000000,,,
4.1035156250,65,88.0000000000,,,
4.1054687500,65,161.0000000000,,,
4.1074218750,65,150.0000000000,,,
4.1093750000,65,105.0000000000,,,
4.1113281250,65,34.0000000000,,,
4.1132812500,65,-62.0000000000,,,
4.1152343750,65,-122.0000000000,,,
4.1171875000,65,-99.0000000000,,,
4.1191406250,65,-90.0000000000,,,
4.1210937500,65,-78.0000000000,,,
4.1230468750,65,-60.0000000000,,,
4.1250000000,66,-46.0000000000,,,
4.1269531250,66,-25.0000000000,,,
4.1289062500,66,17.0000000000,,,
4.1308593750,66,36.0000000000,,,
4.1328125000,66,33.0000000000,,,
4.1347656250,66,22.0000000000,,,
4.1367187500,66,2.0000000000,,,
4.1386718750,66,-33.0000000000,,,
4.1406250000,66,-27.0000000000,,,
4.1425781250,66,9.0000000000,,,
4.1445312500,66,42.0000000000,,,
4.1464843750,66,65.0000000000,,,
4.1484375000,66,36.0000000000,,,
4.1503906250,66,-2.0000000000,,,
4.1523437500,66,-22.0000000000,,,
4.1542968750,66,-18.0000000000,,,
4.1562500000,66,-9.0000000000,,,
4.1582031250,66,-9.0000000000,,,
4.1601562500,66,-3.0000000000,,,
4.1621093750,66,-6.0000000000,,,
4.1640625000,66,-10.0000000000,,,
4.1660156250,66,8.0000000000,,,
4.1679687500,66,58.0000000000,,,
4.1699218750,66,82.0000000000,,,
4.1718750000,66,49.0000000000,,,
4.1738281250,66,19.0000000000,,,
4.1757812500,66,12.0000000000,,,
4.1777343750,66,33.0000000000,,,
4.1796875000,66,48.0000000000,,,
4.1816406250,66,73.0000000000,,,
4.1835937500,66,92.0000000000,,,
4.1855468750,66,52.0000000000,,,
4.1875000000,67,-35.0000000000,,,
4.1894531250,67,-78.0000000000,,,
4.1914062500,67,-33.0000000000,,,
4.1933593750,67,25.0000000000,,,
4.1953125000,67,-41.0000000000,,,
4.1972656250,67,-125.0000000000,,,
4.1992187500,67,-104.0000000000,,,
4.2011718750,67,-43.0000000000,,,
4.2031250000,67,-18.0000000000,,,
4.2050781250,67,17.0000000000,,,
4.2070312500,67,6.0000000000,,,
4.2089843750,67,-45.0000000000,,,
4.2109375000,67,-102.0000000000,,,
4.2128906250,67,-113.0000000000,,,
4.2148437500,67,-81.0000000000,,,
4.2167968750,67,-11.0000000000,,,
4.2187500000,67,24.0000000000,,,
4.2207031250,67,-9.0000000000,,,
4.2226562500,67,-36.0000000000,,,
4.2246093750,67,-6.0000000000,,,
4.2265625000,67,39.0000000000,,,
4.2285156250,67,-12.0000000000,,,
4.2304687500,67,-113.0000000000,,,
4.2324218750,67,-142.0000000000,,,
4.2343750000,67,-122.0000000000,,,
4.2363281250,67,-59.0000000000,,,
4.2382812500,67,9.0000000000,,,
4.2402343750,67,43.0000000000,,,
4.2421875000,67,49.0000000000,,,
4.2441406250,67,25.0000000000,,,
4.2460937500,67,4.0000000000,,,
4.2480468750,67,44.0000000000,,,
4.2500000000,68,54.0000000000,,,
4.2519531250,68,29.0000000000,,,
4.2539062500,68,45.0000000000,,,
4.2558593750,68,12.0000000000,,,
4.2578125000,68,-4.0000000000,,,
4.2597656250,68,33.0000000000,,,
4.2617187500,68,52.0000000000,,,
4.2636718750,68,67.0000000000,,,
4.2656250000,68,-18.0000000000,,,
4.2675781250,68,-91.0000000000,,,
4.2695312500,68,-138.0000000000,,,
4.2714843750,68,-155.0000000000,,,
4.2734375000,68,-116.0000000000,,,
4.2753906250,68,-82.0000000000,,,
4.2773437500,68,7.0000000000,,,
4.2792968750,68,17.0000000000,,,
4.2812500000,68,-67.0000000000,,,
4.2832031250,68,-60.0000000000,,,
4.2851562500,68,-58.0000000000,,,
4.2871093750,68,-91.0000000000,,,
4.2890625000,68,-90.0000000000,,,
4.2910156250,68,-13.0000000000,,,
4.2929687500,68,60.0000000000,,,
4.2949218750,68,97.0000000000,,,
4.2968750000,68,96.0000000000,,,
4.2988281250,68,161.0000000000,,,
4.3007812500,68,413.0000000000,,,
4.3027343750,68,422.0000000000,,,
4.3046875000,68,121.0000000000,,,
4.3066406250,68,-219.0000000000,,,
4.3085937500,68,-273.0000000000,,,
4.3105468750,68,-185.0000000000,,,
4.3125000000,69,-133.0000000000,,,
4.3144531250,69,-193.0000000000,,,
4.3164062500,69,-209.0000000000,,,
4.3183593750,69,-133.0000000000,,,
4.3203125000,69,-170.0000000000,,,
4.3222656250,69,-291.0000000000,,,
4.3242187500,69,-202.0000000000,,,
4.3261718750,69,59.0000000000,,,
4.3281250000,69,245.0000000000,,,
4.3300781250,69,445.0000000000,,,
4.3320312500,69,474.0000000000,,,
4.3339843750,69,96.0000000000,,,
4.3359375000,69,-153.0000000000,,,
4.3378906250,69,-106.0000000000,,,
4.3398437500,69,29.0000000000,,,
4.3417968750,69,-4.0000000000,,,
4.3437500000,69,-330.0000000000,,,
4.3457031250,69,-534.0000000000,,,
4.3476562500,69,-339.0000000000,,,
4.3496093750,69,49.0000000000,,,
4.3515625000,69,339.0000000000,,,
4.3535156250,69,387.0000000000,,,
4.3554687500,69,507.0000000000,,,
4.3574218750,69,653.0000000000,,,
4.3593750000,69,395.0000000000,,,
4.3613281250,69,-45.0000000000,,,
4.3632812500,69,-395.0000000000,,,
4.3652343750,69,-602.0000000000,,,
4.3671875000,69,-637.0000000000,,,
4.3691406250,69,-525.0000000000,,,
4.3710937500,69,-371.0000000000,,,
4.3730468750,69,-236.0000000000,,,
4.3750000000,70,-130.0000000000,,,
4.3769531250,70,-20.0000000000,,,
4.3789062500,70,89.0000000000,,,
4.3808593750,70,168.0000000000,,,
4.3828125000,70,177.0000000000,,,
4.3847656250,70,89.0000000000,,,
4.3867187500,70,-7.0000000000,,,
4.3886718750,70,-22.0000000000,,,
4.3906250000,70,34.0000000000,,,
4.3925781250,70,76.0000000000,,,
4.3945312500,70,100.0000000000,,,
4.3964843750,70,114.0000000000,,,
4.3984375000,70,106.0000000000,,,
4.4003906250,70,71.0000000000,,,
4.4023437500,70,44.0000000000,,,
4.4042968750,70,58.0000000000,,,
4.4062500000,70,88.0000000000,,,
4.4082031250,70,112.0000000000,,,
4.4101562500,70,120.0000000000,,,
4.4121093750,70,105.0000000000,,,
4.4140625000,70,116.0000000000,,,
4.4160156250,70,156.0000000000,,,
4.4179687500,70,148.0000000000,,,
4.4199218750,70,109.0000000000,,,
4.4218750000,70,82.0000000000,,,
4.4238281250,70,84.0000000000,,,
4.4257812500,70,99.0000000000,,,
4.4277343750,70,106.0000000000,,,
4.4296875000,70,76.0000000000,,,
4.4316406250,70,77.0000000000,,,
4.4335937500,70,136.0000000000,,,
4.4355468750,70,160.0000000000,,,
4.4375000000,71,121.0000000000,,,
4.4394531250,71,80.0000000000,,,
4.4414062500,71,89.0000000000,,,
4.4433593750,71,115.0000000000,,,
4.4453125000,71,120.0000000000,,,
4.4472656250,71,128.0000000000,,,
4.4492187500,71,115.0000000000,,,
4.4511718750,71,89.0000000000,,,
4.4531250000,71,82.0000000000,,,
4.4550781250,71,73.0000000000,,,
4.4570312500,71,61.0000000000,,,
4.4589843750,71,80.0000000000,,,
4.4609375000,71,156.0000000000,,,
4.4628906250,71,198.0000000000,,,
4.4648437500,71,131.0000000000,,,
4.4667968750,71,8.0000000000,,,
4.4687500000,71,-11.0000000000,,,
4.4707031250,71,69.0000000000,,,
4.4726562500,71,117.0000000000,,,
4.4746093750,71,116.0000000000,,,
4.4765625000,71,86.0000000000,,,
4.4785156250,71,36.0000000000,,,
4.4804687500,71,3.0000000000,,,
4.4824218750,71,-6.0000000000,,,
4.4843750000,71,-2.0000000000,,,
4.4863281250,71,8.0000000000,,,
4.4882812500,71,-4.0000000000,,,
4.4902343750,71,-68.0000000000,,,
4.4921875000,71,-137.0000000000,,,
4.4941406250,71,-157.0000000000,,,
4.4960937500,71,-86.0000000000,,,
4.4980468750,71,-8.0000000000,,,
4.5000000000,72,-42.0000000000,,,
4.5019531250,72,-91.0000000000,,,
4.5039062500,72,-92.0000000000,,,
4.5058593750,72,-85.0000000000,,,
4.5078125000,72,-93.0000000000,,,
4.5097656250,72,-103.0000000000,,,
4.5117187500,72,-62.0000000000,,,
4.5136718750,72,-27.0000000000,,,
4.5156250000,72,-27.0000000000,,,
4.5175781250,72,-57.0000000000,,,
4.5195312500,72,-17.0000000000,,,
4.5214843750,72,72.0000000000,,,
4.5234375000,72,80.0000000000,,,
4.5253906250,72,25.0000000000,,,
4.5273437500,72,-7.0000000000,,,
4.5292968750,72,67.0000000000,,,
4.5312500000,72,168.0000000000,,,
4.5332031250,72,153.0000000000,,,
4.5351562500,72,129.0000000000,,,
4.5371093750,72,148.0000000000,,,
4.5390625000,72,176.0000000000,,,
4.5410156250,72,172.0000000000,,,
4.5429687500,72,146.0000000000,,,
4.5449218750,72,134.0000000000,,,
4.5468750000,72,119.0000000000,,,
4.5488281250,72,116.0000000000,,,
4.5507812500,72,117.0000000000,,,
4.5527343750,72,108.0000000000,,,
4.5546875000,72,55.0000000000,,,
4.5566406250,72,68.0000000000,,,
4.5585937500,72,119.0000000000,,,
4.5605468750,72,177.0000000000,,,
4.5625000000,73,240.0000000000,,,
4.5644531250,73,204.0000000000,,,
4.5664062500,73,124.0000000000,,,
4.5683593750,73,141.0000000000,,,
4.5703125000,73,212.0000000000,,,
4.5722656250,73,247.0000000000,,,
4.5742187500,73,218.0000000000,,,
4.5761718750,73,161.0000000000,,,
4.5781250000,73,129.0000000000,,,
4.5800781250,73,152.0000000000,,,
4.5820312500,73,133.0000000000,,,
4.5839843750,73,74.0000000000,,,
4.5859375000,73,18.0000000000,,,
4.5878906250,73,34.0000000000,,,
4.5898437500,73,77.0000000000,,,
4.5917968750,73,91.0000000000,,,
4.5937500000,73,37.0000000000,,,
4.5957031250,73,22.0000000000,,,
4.5976562500,73,117.0000000000,,,
4.5996093750,73,171.0000000000,,,
4.6015625000,73,185.0000000000,,,
4.6035156250,73,169.0000000000,,,
4.6054687500,73,68.0000000000,,,
4.6074218750,73,35.0000000000,,,
4.6093750000,73,69.0000000000,,,
4.6113281250,73,118.0000000000,,,
4.6132812500,73,181.0000000000,,,
4.6152343750,73,172.0000000000,,,
4.6171875000,73,112.0000000000,,,
4.6191406250,73,107.0000000000,,,
4.6210937500,73,131.0000000000,,,
4.6230468750,73,181.0000000000,,,
4.6250000000,74,216.0000000000,,,
4.6269531250,74,184.0000000000,,,
4.6289062500,74,113.0000000000,,,
4.6308593750,74,89.0000000000,,,
4.6328125000,74,167.0000000000,,,
4.6347656250,74,181.0000000000,,,
4.6367187500,74,55.0000000000,,,
4.6386718750,74,-35.0000000000,,,
4.6406250000,74,23.0000000000,,,
4.6425781250,74,117.0000000000,,,
4.6445312500,74,129.0000000000,,,
4.6464843750,74,98.0000000000,,,
4.6484375000,74,123.0000000000,,,
4.6503906250,74,211.0000000000,,,
4.6523437500,74,259.0000000000,,,
4.6542968750,74,272.0000000000,,,
4.6562500000,74,266.0000000000,,,
4.6582031250,74,218.0000000000,,,
4.6601562500,74,138.0000000000,,,
4.6621093750,74,153.0000000000,,,
4.6640625000,74,251.0000000000,,,
4.6660156250,74,306.0000000000,,,
4.6679687500,74,259.0000000000,,,
4.6699218750,74,170.0000000000,,,
4.6718750000,74,81.0000000000,,,
4.6738281250,74,38.0000000000,,,
4.6757812500,74,69.0000000000,,,
4.6777343750,74,205.0000000000,,,
4.6796875000,74,300.0000000000,,,
4.6816406250,74,161.0000000000,,,
4.6835937500,74,123.0000000000,,,
4.6855468750,74,193.0000000000,,,
4.6875000000,75,116.0000000000,,,
4.6894531250,75,154.0000000000,,,
4.6914062500,75,234.0000000000,,,
4.6933593750,75,104.0000000000,,,
4.6953125000,75,-135.0000000000,,,
4.6972656250,75,-221.0000000000,,,
4.6992187500,75,-125.0000000000,,,
4.7011718750,75,-20.0000000000,,,
4.7031250000,75,-28.0000000000,,,
4.7050781250,75,-27.0000000000,,,
4.7070312500,75,-9.0000000000,,,
4.7089843750,75,-3.0000000000,,,
4.7109375000,75,-130.0000000000,,,
4.7128906250,75,-232.0000000000,,,
4.7148437500,75,-123.0000000000,,,
4.7167968750,75,43.0000000000,,,
4.7187500000,75,4.0000000000,,,
4.7207031250,75,-166.0000000000,,,
4.7226562500,75,-274.0000000000,,,
4.7246093750,75,-133.0000000000,,,
4.7265625000,75,109.0000000000,,,
4.7285156250,75,99.0000000000,,,
4.7304687500,75,-70.0000000000,33553,4.7304687500,0.0019531250
4.7324218750,75,-70.0000000000,33554,4.7324218750,0.0000000000
4.7343750000,75,-124.0000000000,,,
4.7363281250,75,42.0000000000,,,
4.7382812500,75,118.0000000000,,,
4.7402343750,75,114.0000000000,,,
4.7421875000,75,156.0000000000,,,
4.7441406250,75,352.0000000000,,,
4.7460937500,75,141.0000000000,,,
4.7480468750,75,-393.0000000000,,,
4.7500000000,76,-701.0000000000,,,
4.7519531250,76,-662.0000000000,,,
4.7539062500,76,-396.0000000000,,,
4.7558593750,76,-373.0000000000,,,
4.7578125000,76,-517.0000000000,,,
4.7597656250,76,-530.0000000000,,,
4.7617187500,76,-296.0000000000,,,
4.7636718750,76,40.0000000000,,,
4.7656250000,76,322.0000000000,,,
4.7675781250,76,195.0000000000,,,
4.7695312500,76,-86.0000000000,,,
4.7714843750,76,103.0000000000,,,
4.7734375000,76,292.0000000000,,,
4.7753906250,76,41.0000000000,,,
4.7773437500,76,-238.0000000000,,,
4.7792968750,76,-81.0000000000,,,
4.7812500000,76,262.0000000000,,,
4.7832031250,76,641.0000000000,,,
4.7851562500,76,546.0000000000,,,
4.7871093750,76,-169.0000000000,,,
4.7890625000,76,-538.0000000000,,,
4.7910156250,76,-362.0000000000,,,
4.7929687500,76,-300.0000000000,,,
4.7949218750,76,-345.0000000000,,,
4.7968750000,76,-314.0000000000,,,
4.7988281250,76,-404.0000000000,,,
4.8007812500,76,-402.0000000000,,,
4.8027343750,76,-9.0000000000,,,
4.8046875000,76,18.0000000000,,,
4.8066406250,76,-356.0000000000,,,
4.8085937500,76,-467.0000000000,,,
4.8105468750,76,-115.0000000000,,,
4.8125000000,77,333.0000000000,,,
4.8144531250,77,553.0000000000,,,
4.8164062500,77,625.0000000000,,,
4.8183593750,77,409.0000000000,,,
4.8203125000,77,85.0000000000,,,
4.8222656250,77,120.0000000000,,,
4.8242187500,77,267.0000000000,,,
4.8261718750,77,-38.0000000000,,,
4.8281250000,77,-497.0000000000,,,
4.8300781250,77,-532.0000000000,,,
4.8320312500,77,-274.0000000000,,,
4.8339843750,77,-275.0000000000,,,
4.8359375000,77,-459.0000000000,,,
4.8378906250,77,-301.0000000000,,,
4.8398437500,77,119.0000000000,,,
4.8417968750,77,197.0000000000,,,
4.8437500000,77,-98.0000000000,,,
4.8457031250,77,-388.0000000000,,,
4.8476562500,77,-378.0000000000,,,
4.8496093750,77,-234.0000000000,,,
4.8515625000,77,-186.0000000000,,,
4.8535156250,77,-215.0000000000,,,
4.8554687500,77,-232.0000000000,,,
4.8574218750,77,-179.0000000000,,,
4.8593750000,77,-93.0000000000,,,
4.8613281250,77,-62.0000000000,,,
4.8632812500,77,-124.0000000000,,,
4.8652343750,77,-228.0000000000,,,
4.8671875000,77,-268.0000000000,,,
4.8691406250,77,-180.0000000000,,,
4.8710937500,77,26.0000000000,,,
4.8730468750,77,225.0000000000,,,
4.8750000000,78,530.0000000000,,,
4.8769531250,78,1032.0000000000,,,
4.8789062500,78,1101.0000000000,,,
4.8808593750,78,440.0000000000,,,
4.8828125000,78,-232.0000000000,,,
4.8847656250,78,-437.0000000000,,,
4.8867187500,78,-309.0000000000,,,
4.8886718750,78,-169.0000000000,,,
4.8906250000,78,-206.0000000000,,,
4.8925781250,78,-250.0000000000,,,
4.8945312500,78,-162.0000000000,,,
4.8964843750,78,-6.0000000000,,,
4.8984375000,78,152.0000000000,,,
4.9003906250,78,217.0000000000,,,
4.9023437500,78,257.0000000000,,,
4.9042968750,78,292.0000000000,,,
4.9062500000,78,241.0000000000,,,
4.9082031250,78,145.0000000000,,,
4.9101562500,78,18.0000000000,,,
4.9121093750,78,-81.0000000000,,,
4.9140625000,78,-35.0000000000,,,
4.9160156250,78,105.0000000000,,,
4.9179687500,78,245.0000000000,,,
4.9199218750,78,331.0000000000,,,
4.9218750000,78,308.0000000000,,,
4.9238281250,78,209.0000000000,,,
4.9257812500,78,128.0000000000,,,
4.9277343750,78,104.0000000000,,,
4.9296875000,78,105.0000000000,,,
4.9316406250,78,107.0000000000,,,
4.9335937500,78,162.0000000000,,,
4.9355468750,78,216.0000000000,,,
4.9375000000,79,237.0000000000,,,
4.9394531250,79,267.0000000000,,,
4.9414062500,79,247.0000000000,,,
4.9433593750,79,179.0000000000,,,
4.9453125000,79,168.0000000000,,,
4.9472656250,79,227.0000000000,,,
4.9492187500,79,233.0000000000,,,
4.9511718750,79,211.0000000000,,,
4.9531250000,79,262.0000000000,,,
4.9550781250,79,272.0000000000,,,
4.9570312500,79,224.0000000000,,,
4.9589843750,79,217.0000000000,,,
4.9609375000,79,244.0000000000,,,
4.9628906250,79,213.0000000000,,,
4.9648437500,79,161.0000000000,,,
4.9667968750,79,197.0000000000,,,
4.9687500000,79,268.0000000000,,,
4.9707031250,79,240.0000000000,,,
4.9726562500,79,169.0000000000,,,
4.9746093750,79,183.0000000000,,,
4.9765625000,79,192.0000000000,,,
4.9785156250,79,183.0000000000,,,
4.9804687500,79,161.0000000000,,,
4.9824218750,79,154.0000000000,,,
4.9843750000,79,168.0000000000,,,
4.9863281250,79,186.0000000000,,,
4.9882812500,79,144.0000000000,,,
4.9902343750,79,51.0000000000,,,
4.9921875000,79,50.0000000000,,,
4.9941406250,79,136.0000000000,,,
4.9960937500,79,139.0000000000,,,
4.9980468750,79,90.0000000000,,,
5.0000000000,80,76.0000000000,,,
5.0019531250,80,60.0000000000,,,
5.0039062500,80,53.0000000000,,,
5.0058593750,80,48.0000000000,,,
5.0078125000,80,150.0000000000,,,
5.0097656250,80,211.0000000000,,,
5.0117187500,80,90.0000000000,,,
5.0136718750,80,-94.0000000000,,,
5.0156250000,80,-137.0000000000,,,
5.0175781250,80,23.0000000000,,,
5.0195312500,80,169.0000000000,,,
5.0214843750,80,153.0000000000,,,
5.0234375000,80,89.0000000000,,,
5.0253906250,80,45.0000000000,,,
5.0273437500,80,28.0000000000,,,
5.0292968750,80,55.0000000000,,,
5.0312500000,80,130.0000000000,,,
5.0332031250,80,192.0000000000,,,
5.0351562500,80,132.0000000000,,,
5.0371093750,80,48.0000000000,,,
5.0390625000,80,72.0000000000,,,
5.0410156250,80,139.0000000000,,,
5.0429687500,80,199.0000000000,,,
5.0449218750,80,171.0000000000,,,
5.0468750000,80,81.0000000000,,,
5.0488281250,80,21.0000000000,,,
5.0507812500,80,-11.0000000000,,,
5.0527343750,80,-101.0000000000,,,
5.0546875000,80,-193.0000000000,,,
5.0566406250,80,-146.0000000000,,,
5.0585937500,80,74.0000000000,,,
5.0605468750,80,267.0000000000,,,
5.0625000000,81,234.0000000000,,,
5.0644531250,81,26.0000000000,,,
5.0664062500,81,-51.0000000000,,,
5.0683593750,81,91.0000000000,,,
5.0703125000,81,226.0000000000,,,
5.0722656250,81,112.0000000000,,,
5.0742187500,81,19.0000000000,,,
5.0761718750,81,-74.0000000000,,,
5.0781250000,81,-170.0000000000,,,
5.0800781250,81,-54.0000000000,,,
5.0820312500,81,167.0000000000,,,
5.0839843750,81,224.0000000000,,,
5.0859375000,81,166.0000000000,,,
5.0878906250,81,112.0000000000,,,
5.0898437500,81,9.0000000000,,,
5.0917968750,81,59.0000000000,,,
5.0937500000,81,208.0000000000,,,
5.0957031250,81,300.0000000000,,,
5.0976562500,81,247.0000000000,,,
5.0996093750,81,128.0000000000,,,
5.1015625000,81,101.0000000000,,,
5.1035156250,81,81.0000000000,,,
5.1054687500,81,7.0000000000,,,
5.1074218750,81,-22.0000000000,,,
5.1093750000,81,-2.0000000000,,,
5.1113281250,81,-17.0000000000,,,
5.1132812500,81,-9.0000000000,,,
5.1152343750,81,-7.0000000000,,,
5.1171875000,81,40.0000000000,,,
5.1191406250,81,160.0000000000,,,
5.1210937500,81,208.0000000000,,,
5.1230468750,81,145.0000000000,,,
5.1250000000,82,89.0000000000,,,
5.1269531250,82,36.0000000000,,,
5.1289062500,82,1.0000000000,,,
5.1308593750,82,-44.0000000000,,,
5.1328125000,82,-97.0000000000,,,
5.1347656250,82,-49.0000000000,,,
5.1367187500,82,35.0000000000,,,
5.1386718750,82,38.0000000000,,,
5.1406250000,82,12.0000000000,,,
5.1425781250,82,-23.0000000000,,,
5.1445312500,82,-68.0000000000,,,
5.1464843750,82,-109.0000000000,,,
5.1484375000,82,-73.0000000000,,,
5.1503906250,82,9.0000000000,,,
5.1523437500,82,12.0000000000,,,
5.1542968750,82,-4.0000000000,,,
5.1562500000,82,-29.0000000000,,,
5.1582031250,82,-100.0000000000,,,
5.1601562500,82,-114.0000000000,,,
5.1621093750,82,-53.0000000000,,,
5.1640625000,82,-11.0000000000,,,
5.1660156250,82,-30.0000000000,,,
5.1679687500,82,-81.0000000000,,,
5.1699218750,82,-76.0000000000,,,
5.1718750000,82,-37.0000000000,,,
5.1738281250,82,-17.0000000000,,,
5.1757812500,82,53.0000000000,,,
5.1777343750,82,153.0000000000,,,
5.1796875000,82,186.0000000000,,,
5.1816406250,82,116.0000000000,,,
5.1835937500,82,70.0000000000,,,
5.1855468750,82,80.0000000000,,,
5.1875000000,83,81.0000000000,,,
5.1894531250,83,87.0000000000,,,
5.1914062500,83,245.0000000000,,,
5.1933593750,83,377.0000000000,,,
5.1953125000,83,435.0000000000,,,
5.1972656250,83,408.0000000000,,,
5.1992187500,83,166.0000000000,,,
5.2011718750,83,-1.0000000000,,,
5.2031250000,83,-25.0000000000,,,
5.2050781250,83,53.0000000000,,,
5.2070312500,83,173.0000000000,,,
5.2089843750,83,227.0000000000,,,
5.2109375000,83,169.0000000000,,,
5.2128906250,83,21.0000000000,,,
5.2148437500,83,-18.0000000000,,,
5.2167968750,83,69.0000000000,,,
5.2187500000,83,18.0000000000,,,
5.2207031250,83,-130.0000000000,,,
5.2226562500,83,-101.0000000000,,,
5.2246093750,83,4.0000000000,,,
5.2265625000,83,96.0000000000,,,
5.2285156250,83,-41.0000000000,,,
5.2304687500,83,-285.0000000000,,,
5.2324218750,83,-350.0000000000,,,
5.2343750000,83,-142.0000000000,,,
5.2363281250,83,65.0000000000,,,
5.2382812500,83,24.0000000000,,,
5.2402343750,83,-151.0000000000,,,
5.2421875000,83,-344.0000000000,,,
5.2441406250,83,-490.0000000000,,,
5.2460937500,83,-341.0000000000,,,
5.2480468750,83,55.0000000000,,,
5.2500000000,84,259.0000000000,,,
5.2519531250,84,87.0000000000,,,
5.2539062500,84,-57.0000000000,,,
5.2558593750,84,29.0000000000,,,
5.2578125000,84,209.0000000000,,,
5.2597656250,84,194.0000000000,,,
5.2617187500,84,18.0000000000,,,
5.2636718750,84,-92.0000000000,,,
5.2656250000,84,-106.0000000000,,,
5.2675781250,84,-163.0000000000,,,
5.2695312500,84,-340.0000000000,,,
5.2714843750,84,-532.0000000000,,,
5.2734375000,84,-574.0000000000,,,
5.2753906250,84,-500.0000000000,,,
5.2773437500,84,-295.0000000000,,,
5.2792968750,84,22.0000000000,,,
5.2812500000,84,227.0000000000,,,
5.2832031250,84,200.0000000000,,,
5.2851562500,84,0.0000000000,,,
5.2871093750,84,64.0000000000,,,
5.2890625000,84,276.0000000000,,,
5.2910156250,84,180.0000000000,,,
5.2929687500,84,11.0000000000,,,
5.2949218750,84,-22.0000000000,,,
5.2968750000,84,-276.0000000000,,,
5.2988281250,84,-583.0000000000,,,
5.3007812500,84,-626.0000000000,,,
5.3027343750,84,-433.0000000000,,,
5.3046875000,84,-170.0000000000,,,
5.3066406250,84,92.0000000000,,,
5.3085937500,84,336.0000000000,,,
5.3105468750,84,301.0000000000,,,
5.3125000000,85,73.0000000000,,,
5.3144531250,85,-130.0000000000,,,
5.3164062500,85,-146.0000000000,,,
5.3183593750,85,-75.0000000000,,,
5.3203125000,85,53.0000000000,,,
5.3222656250,85,54.0000000000,,,
5.3242187500,85,-257.0000000000,,,
5.3261718750,85,-424.0000000000,,,
5.3281250000,85,-322.0000000000,,,
5.3300781250,85,-70.0000000000,,,
5.3320312500,85,339.0000000000,,,
5.3339843750,85,480.0000000000,,,
5.3359375000,85,2.0000000000,,,
5.3378906250,85,-534.0000000000,,,
5.3398437500,85,-632.0000000000,,,
5.3417968750,85,-243.0000000000,,,
5.3437500000,85,146.0000000000,,,
5.3457031250,85,137.0000000000,,,
5.3476562500,85,-58.0000000000,,,
5.3496093750,85,-154.0000000000,,,
5.3515625000,85,5.0000000000,,,
5.3535156250,85,226.0000000000,,,
5.3554687500,85,300.0000000000,,,
5.3574218750,85,160.0000000000,,,
5.3593750000,85,-60.0000000000,,,
5.3613281250,85,-201.0000000000,,,
5.3632812500,85,-154.0000000000,,,
5.3652343750,85,-92.0000000000,,,
5.3671875000,85,-89.0000000000,,,
5.3691406250,85,-84.0000000000,,,
5.3710937500,85,2.0000000000,,,
5.3730468750,85,198.0000000000,,,
5.3750000000,86,218.0000000000,,,
5.3769531250,86,-87.0000000000,,,
5.3789062500,86,-291.0000000000,,,
5.3808593750,86,-227.0000000000,,,
5.3828125000,86,-41.0000000000,,,
5.3847656250,86,73.0000000000,,,
5.3867187500,86,81.0000000000,,,
5.3886718750,86,48.0000000000,,,
5.3906250000,86,5.0000000000,,,
5.3925781250,86,83.0000000000,,,
5.3945312500,86,251.0000000000,,,
5.3964843750,86,246.0000000000,,,
5.3984375000,86,168.0000000000,,,
5.4003906250,86,185.0000000000,,,
5.4023437500,86,215.0000000000,,,
5.4042968750,86,276.0000000000,,,
5.4062500000,86,266.0000000000,,,
5.4082031250,86,117.0000000000,,,
5.4101562500,86,26.0000000000,,,
5.4121093750,86,57.0000000000,,,
5.4140625000,86,114.0000000000,,,
5.4160156250,86,164.0000000000,,,
5.4179687500,86,116.0000000000,,,
5.4199218750,86,27.0000000000,,,
5.4218750000,86,-18.0000000000,,,
5.4238281250,86,7.0000000000,,,
5.4257812500,86,64.0000000000,,,
5.4277343750,86,97.0000000000,,,
5.4296875000,86,131.0000000000,,,
5.4316406250,86,136.0000000000,,,
5.4335937500,86,133.0000000000,,,
5.4355468750,86,146.0000000000,,,
5.4375000000,87,151.0000000000,,,
5.4394531250,87,151.0000000000,,,
5.4414062500,87,149.0000000000,,,
5.4433593750,87,124.0000000000,,,
5.4453125000,87,91.0000000000,,,
5.4472656250,87,123.0000000000,,,
5.4492187500,87,166.0000000000,,,
5.4511718750,87,124.0000000000,,,
5.4531250000,87,42.0000000000,,,
5.4550781250,87,21.0000000000,,,
5.4570312500,87,87.0000000000,,,
5.4589843750,87,114.0000000000,,,
5.4609375000,87,67.0000000000,,,
5.4628906250,87,2.0000000000,,,
5.4648437500,87,-37.0000000000,,,
5.4667968750,87,9.0000000000,,,
5.4687500000,87,121.0000000000,,,
5.4707031250,87,156.0000000000,,,
5.4726562500,87,88.0000000000,,,
5.4746093750,87,29.0000000000,,,
5.4765625000,87,32.0000000000,,,
5.4785156250,87,66.0000000000,,,
5.4804687500,87,90.0000000000,,,
5.4824218750,87,92.0000000000,,,
5.4843750000,87,100.0000000000,,,
5.4863281250,87,83.0000000000,,,
5.4882812500,87,72.0000000000,,,
5.4902343750,87,58.0000000000,,,
5.4921875000,87,26.0000000000,,,
5.4941406250,87,45.0000000000,,,
5.4960937500,87,86.0000000000,,,
5.4980468750,87,85.0000000000,,,
5.5000000000,88,68.0000000000,,,
5.5019531250,88,41.0000000000,,,
5.5039062500,88,29.0000000000,,,
5.5058593750,88,57.0000000000,,,
5.5078125000,88,91.0000000000,,,
5.5097656250,88,85.0000000000,,,
5.5117187500,88,75.0000000000,,,
5.5136718750,88,43.0000000000,,,
5.5156250000,88,39.0000000000,,,
5.5175781250,88,87.0000000000,,,
5.5195312500,88,80.0000000000,,,
5.5214843750,88,60.0000000000,,,
5.5234375000,88,70.0000000000,,,
5.5253906250,88,61.0000000000,,,
5.5273437500,88,82.0000000000,,,
5.5292968750,88,125.0000000000,,,
5.5312500000,88,121.0000000000,,,
5.5332031250,88,71.0000000000,,,
5.5351562500,88,83.0000000000,,,
5.5371093750,88,178.0000000000,,,
5.5390625000,88,237.0000000000,,,
5.5410156250,88,221.0000000000,,,
5.5429687500,88,156.0000000000,,,
5.5449218750,88,88.0000000000,,,
5.5468750000,88,37.0000000000,,,
5.5488281250,88,27.0000000000,,,
5.5507812500,88,55.0000000000,,,
5.5527343750,88,75.0000000000,,,
5.5546875000,88,73.0000000000,,,
5.5566406250,88,56.0000000000,,,
5.5585937500,88,38.0000000000,,,
5.5605468750,88,67.0000000000,,,
5.5625000000,89,151.0000000000,,,
5.5644531250,89,151.0000000000,,,
5.5664062500,89,108.0000000000,,,
5.5683593750,89,91.0000000000,,,
5.5703125000,89,120.0000000000,,,
5.5722656250,89,154.0000000000,,,
5.5742187500,89,165.0000000000,,,
5.5761718750,89,154.0000000000,,,
5.5781250000,89,116.0000000000,,,
5.5800781250,89,116.0000000000,,,
5.5820312500,89,74.0000000000,,,
5.5839843750,89,39.0000000000,,,
5.5859375000,89,115.0000000000,,,
5.5878906250,89,74.0000000000,,,
5.5898437500,89,-14.0000000000,,,
5.5917968750,89,-40.0000000000,,,
5.5937500000,89,1.0000000000,,,
5.5957031250,89,74.0000000000,,,
5.5976562500,89,104.0000000000,,,
5.5996093750,89,163.0000000000,,,
5.6015625000,89,231.0000000000,,,
5.6035156250,89,187.0000000000,,,
5.6054687500,89,170.0000000000,,,
5.6074218750,89,204.0000000000,,,
5.6093750000,89,172.0000000000,,,
5.6113281250,89,214.0000000000,,,
5.6132812500,89,328.0000000000,,,
5.6152343750,89,293.0000000000,,,
5.6171875000,89,132.0000000000,,,
5.6191406250,89,130.0000000000,,,
5.6210937500,89,220.0000000000,,,
5.6230468750,89,194.0000000000,,,
5.6250000000,90,109.0000000000,,,
5.6269531250,90,102.0000000000,,,
5.6289062500,90,199.0000000000,,,
5.6308593750,90,185.0000000000,,,
5.6328125000,90,75.0000000000,,,
5.6347656250,90,86.0000000000,,,
5.6367187500,90,134.0000000000,,,
5.6386718750,90,82.0000000000,,,
5.6406250000,90,36.0000000000,,,
5.6425781250,90,35.0000000000,,,
5.6445312500,90,52.0000000000,,,
5.6464843750,90,38.0000000000,,,
5.6484375000,90,-11.0000000000,,,
5.6503906250,90,68.0000000000,,,
5.6523437500,90,211.0000000000,,,
5.6542968750,90,213.0000000000,,,
5.6562500000,90,34.0000000000,,,
5.6582031250,90,-73.0000000000,,,
5.6601562500,90,23.0000000000,,,
5.6621093750,90,122.0000000000,,,
5.6640625000,90,145.0000000000,,,
5.6660156250,90,36.0000000000,,,
5.6679687500,90,-67.0000000000,,,
5.6699218750,90,6.0000000000,,,
5.6718750000,90,64.0000000000,,,
5.6738281250,90,51.0000000000,,,
5.6757812500,90,85.0000000000,,,
5.6777343750,90,121.0000000000,,,
5.6796875000,90,40.0000000000,,,
5.6816406250,90,-35.0000000000,,,
5.6835937500,90,2.0000000000,,,
5.6855468750,90,-2.0000000000,,,
5.6875000000,91,-43.0000000000,,,
5.6894531250,91,-73.0000000000,,,
5.6914062500,91,-20.0000000000,,,
5.6933593750,91,53.0000000000,,,
5.6953125000,91,170.0000000000,,,
5.6972656250,91,145.0000000000,,,
5.6992187500,91,60.0000000000,,,
5.7011718750,91,-2.0000000000,,,
5.7031250000,91,40.0000000000,,,
5.7050781250,91,107.0000000000,,,
5.7070312500,91,67.0000000000,,,
5.7089843750,91,130.0000000000,,,
5.7109375000,91,55.0000000000,,,
5.7128906250,91,-82.0000000000,,,
5.7148437500,91,-17.0000000000,,,
5.7167968750,91,186.0000000000,,,
5.7187500000,91,186.0000000000,,,
5.7207031250,91,61.0000000000,,,
5.7226562500,91,67.0000000000,,,
5.7246093750,91,80.0000000000,,,
5.7265625000,91,56.0000000000,,,
5.7285156250,91,67.0000000000,,,
5.7304687500,91,24.0000000000,,,
5.7324218750,91,-130.0000000000,33552,5.7324218750,0.0000000000
5.7343750000,91,-22.0000000000,,,
5.7363281250,91,116.0000000000,,,
5.7382812500,91,45.0000000000,,,
5.7402343750,91,-17.0000000000,,,
5.7421875000,91,178.0000000000,,,
5.7441406250,91,132.0000000000,,,
5.7460937500,91,18.0000000000,,,
5.7480468750,91,44.0000000000,,,
5.7500000000,92,146.0000000000,,,
5.7519531250,92,274.0000000000,,,
5.7539062500,92,124.0000000000,,,
5.7558593750,92,-205.0000000000,,,
5.7578125000,92,-248.0000000000,,,
5.7597656250,92,-44.0000000000,,,
5.7617187500,92,33.0000000000,,,
5.7636718750,92,-60.0000000000,,,
5.7656250000,92,-66.0000000000,,,
5.7675781250,92,-78.0000000000,,,
5.7695312500,92,-84.0000000000,,,
5.7714843750,92,-52.0000000000,,,
5.7734375000,92,36.0000000000,,,
5.7753906250,92,186.0000000000,,,
5.7773437500,92,198.0000000000,,,
5.7792968750,92,-30.0000000000,,,
5.7812500000,92,-162.0000000000,,,
5.7832031250,92,-78.0000000000,,,
5.7851562500,92,38.0000000000,,,
5.7871093750,92,-34.0000000000,,,
5.7890625000,92,-113.0000000000,,,
5.7910156250,92,-161.0000000000,,,
5.7929687500,92,-67.0000000000,,,
5.7949218750,92,165.0000000000,,,
5.7968750000,92,312.0000000000,,,
5.7988281250,92,107.0000000000,,,
5.8007812500,92,-117.0000000000,,,
5.8027343750,92,-109.0000000000,,,
5.8046875000,92,2.0000000000,,,
5.8066406250,92,53.0000000000,,,
5.8085937500,92,85.0000000000,,,
5.8105468750,92,128.0000000000,,,
5.8125000000,93,41.0000000000,,,
5.8144531250,93,-138.0000000000,,,
5.8164062500,93,-118.0000000000,,,
5.8183593750,93,-5.0000000000,,,
5.8203125000,93,58.0000000000,,,
5.8222656250,93,43.0000000000,,,
5.8242187500,93,-65.0000000000,,,
5.8261718750,93,-101.0000000000,,,
5.8281250000,93,-22.0000000000,,,
5.8300781250,93,96.0000000000,,,
5.8320312500,93,21.0000000000,,,
5.8339843750,93,-10.0000000000,,,
5.8359375000,93,144.0000000000,,,
5.8378906250,93,150.0000000000,,,
5.8398437500,93,10.0000000000,,,
5.8417968750,93,-56.0000000000,,,
5.8437500000,93,-25.0000000000,,,
5.8457031250,93,-59.0000000000,,,
5.8476562500,93,-118.0000000000,,,
5.8496093750,93,-107.0000000000,,,
5.8515625000,93,-43.0000000000,,,
5.8535156250,93,-35.0000000000,,,
5.8554687500,93,-101.0000000000,,,
5.8574218750,93,-125.0000000000,,,
5.8593750000,93,-115.0000000000,,,
5.8613281250,93,-102.0000000000,,,
5.8632812500,93,-38.0000000000,,,
5.8652343750,93,0.0000000000,,,
5.8671875000,93,-19.0000000000,,,
5.8691406250,93,-35.0000000000,,,
5.8710937500,93,-20.0000000000,,,
5.8730468750,93,-7.0000000000,,,
5.8750000000,94,10.0000000000,,,
5.8769531250,94,48.0000000000,,,
5.8789062500,94,40.0000000000,,,
5.8808593750,94,3.0000000000,,,
5.8828125000,94,-39.0000000000,,,
5.8847656250,94,-43.0000000000,,,
5.8867187500,94,-21.0000000000,,,
5.8886718750,94,-13.0000000000,,,
5.8906250000,94,-51.0000000000,,,
5.8925781250,94,-156.0000000000,,,
5.8945312500,94,-216.0000000000,,,
5.8964843750,94,-129.0000000000,,,
5.8984375000,94,55.0000000000,,,
5.9003906250,94,153.0000000000,,,
5.9023437500,94,135.0000000000,,,
5.9042968750,94,97.0000000000,,,
5.9062500000,94,88.0000000000,,,
5.9082031250,94,96.0000000000,,,
5.9101562500,94,107.0000000000,,,
5.9121093750,94,134.0000000000,,,
5.9140625000,94,105.0000000000,,,
5.9160156250,94,40.0000000000,,,
5.9179687500,94,5.0000000000,,,
5.9199218750,94,6.0000000000,,,
5.9218750000,94,24.0000000000,,,
5.9238281250,94,66.0000000000,,,
5.9257812500,94,121.0000000000,,,
5.9277343750,94,98.0000000000,,,
5.9296875000,94,4.0000000000,,,
5.9316406250,94,29.0000000000,,,
5.9335937500,94,147.0000000000,,,
5.9355468750,94,144.0000000000,,,
5.9375000000,95,33.0000000000,,,
5.9394531250,95,52.0000000000,,,
5.9414062500,95,195.0000000000,,,
5.9433593750,95,226.0000000000,,,
5.9453125000,95,98.0000000000,,,
5.9472656250,95,-10.0000000000,,,
5.9492187500,95,40.0000000000,,,
5.9511718750,95,150.0000000000,,,
5.9531250000,95,154.0000000000,,,
5.9550781250,95,55.0000000000,,,
5.9570312500,95,-22.0000000000,,,
5.9589843750,95,-52.0000000000,,,
5.9609375000,95,-75.0000000000,,,
5.9628906250,95,-73.0000000000,,,
5.9648437500,95,-13.0000000000,,,
5.9667968750,95,60.0000000000,,,
5.9687500000,95,29.0000000000,,,
5.9707031250,95,-8.0000000000,,,
5.9726562500,95,-10.0000000000,,,
5.9746093750,95,-25.0000000000,,,
5.9765625000,95,-20.0000000000,,,
5.9785156250,95,-17.0000000000,,,
5.9804687500,95,-10.0000000000,,,
5.9824218750,95,-27.0000000000,,,
5.9843750000,95,-25.0000000000,,,
5.9863281250,95,56.0000000000,,,
5.9882812500,95,128.0000000000,,,
5.9902343750,95,109.0000000000,,,
5.9921875000,95,59.0000000000,,,
5.9941406250,95,58.0000000000,,,
5.9960937500,95,85.0000000000,,,
5.9980468750,95,66.0000000000,,,
6.0000000000,96,41.0000000000,,,
6.0019531250,96,22.0000000000,,,
6.0039062500,96,65.0000000000,,,
6.0058593750,96,140.0000000000,,,
6.0078125000,96,108.0000000000,,,
6.0097656250,96,105.0000000000,,,
6.0117187500,96,152.0000000000,,,
6.0136718750,96,132.0000000000,,,
6.0156250000,96,91.0000000000,,,
6.0175781250,96,74.0000000000,,,
6.0195312500,96,26.0000000000,,,
6.0214843750,96,-2.0000000000,,,
6.0234375000,96,12.0000000000,,,
6.0253906250,96,48.0000000000,,,
6.0273437500,96,105.0000000000,,,
6.0292968750,96,129.0000000000,,,
6.0312500000,96,66.0000000000,,,
6.0332031250,96,-6.0000000000,,,
6.0351562500,96,-62.0000000000,,,
6.0371093750,96,-114.0000000000,,,
6.0390625000,96,-66.0000000000,,,
6.0410156250,96,11.0000000000,,,
6.0429687500,96,48.0000000000,33553,6.0429687500,0.0019531250
6.0449218750,96,48.0000000000,33554,6.0449218750,0.0000000000
6.0468750000,96,-26.0000000000,,,
6.0488281250,96,-129.0000000000,,,
6.0507812500,96,-129.0000000000,,,
6.0527343750,96,-75.0000000000,,,
6.0546875000,96,-97.0000000000,,,
6.0566406250,96,-115.0000000000,,,
6.0585937500,96,-98.0000000000,,,
6.0605468750,96,-92.0000000000,,,
6.0625000000,97,-147.0000000000,,,
6.0644531250,97,-188.0000000000,,,
6.0664062500,97,-170.0000000000,,,
6.0683593750,97,-90.0000000000,,,
6.0703125000,97,-51.0000000000,,,
6.0722656250,97,-56.0000000000,,,
6.0742187500,97,-84.0000000000,,,
6.0761718750,97,-105.0000000000,,,
6.0781250000,97,-108.0000000000,,,
6.0800781250,97,-121.0000000000,,,
6.0820312500,97,-115.0000000000,,,
6.0839843750,97,-76.0000000000,,,
6.0859375000,97,-59.0000000000,,,
6.0878906250,97,-115.0000000000,,,
6.0898437500,97,-161.0000000000,,,
6.0917968750,97,-156.0000000000,,,
6.0937500000,97,-137.0000000000,,,
6.0957031250,97,-116.0000000000,,,
6.0976562500,97,-94.0000000000,,,
6.0996093750,97,-121.0000000000,,,
6.1015625000,97,-225.0000000000,,,
6.1035156250,97,-251.0000000000,,,
6.1054687500,97,-165.0000000000,,,
6.1074218750,97,-120.0000000000,,,
6.1093750000,97,-135.0000000000,,,
6.1113281250,97,-107.0000000000,,,
6.1132812500,97,-100.0000000000,,,
6.1152343750,97,-146.0000000000,,,
6.1171875000,97,-100.0000000000,,,
6.1191406250,97,-29.0000000000,,,
6.1210937500,97,32.0000000000,,,
6.1230468750,97,56.0000000000,,,
6.1250000000,98,56.0000000000,,,
6.1269531250,98,64.0000000000,,,
6.1289062500,98,80.0000000000,,,
6.1308593750,98,22.0000000000,,,
6.1328125000,98,-11.0000000000,,,
6.1347656250,98,18.0000000000,,,
6.1367187500,98,38.0000000000,,,
6.1386718750,98,96.0000000000,,,
6.1406250000,98,61.0000000000,,,
6.1425781250,98,-60.0000000000,,,
6.1445312500,98,-54.0000000000,,,
6.1464843750,98,67.0000000000,,,
6.1484375000,98,196.0000000000,,,
6.1503906250,98,196.0000000000,,,
6.1523437500,98,103.0000000000,,,
6.1542968750,98,146.0000000000,,,
6.1562500000,98,224.0000000000,,,
6.1582031250,98,181.0000000000,,,
6.1601562500,98,70.0000000000,,,
6.1621093750,98,73.0000000000,,,
6.1640625000,98,160.0000000000,,,
6.1660156250,98,228.0000000000,,,
6.1679687500,98,232.0000000000,,,
6.1699218750,98,165.0000000000,,,
6.1718750000,98,130.0000000000,,,
6.1738281250,98,155.0000000000,,,
6.1757812500,98,165.0000000000,,,
6.1777343750,98,116.0000000000,,,
6.1796875000,98,129.0000000000,,,
6.1816406250,98,128.0000000000,,,
6.1835937500,98,-1.0000000000,,,
6.1855468750,98,-97.0000000000,,,
6.1875000000,99,-23.0000000000,,,
6.1894531250,99,84.0000000000,,,
6.1914062500,99,149.0000000000,,,
6.1933593750,99,180.0000000000,,,
6.1953125000,99,195.0000000000,,,
6.1972656250,99,182.0000000000,,,
6.1992187500,99,183.0000000000,,,
6.2011718750,99,221.0000000000,,,
6.2031250000,99,236.0000000000,,,
6.2050781250,99,227.0000000000,,,
6.2070312500,99,224.0000000000,,,
6.2089843750,99,219.0000000000,,,
6.2109375000,99,212.0000000000,,,
6.2128906250,99,188.0000000000,,,
6.2148437500,99,177.0000000000,,,
6.2167968750,99,123.0000000000,,,
6.2187500000,99,106.0000000000,,,
6.2207031250,99,176.0000000000,,,
6.2226562500,99,186.0000000000,,,
6.2246093750,99,134.0000000000,,,
6.2265625000,99,102.0000000000,,,
6.2285156250,99,164.0000000000,,,
6.2304687500,99,198.0000000000,,,
6.2324218750,99,185.0000000000,,,
6.2343750000,99,178.0000000000,,,
6.2363281250,99,161.0000000000,,,
6.2382812500,99,147.0000000000,,,
6.2402343750,99,61.0000000000,,,
6.2421875000,99,-29.0000000000,,,
6.2441406250,99,26.0000000000,,,
6.2460937500,99,147.0000000000,,,
6.2480468750,99,138.0000000000,,,
6.2500000000,100,57.0000000000,,,
6.2519531250,100,16.0000000000,,,
6.2539062500,100,28.0000000000,,,
6.2558593750,100,87.0000000000,,,
6.2578125000,100,99.0000000000,,,
6.2597656250,100,75.0000000000,,,
6.2617187500,100,71.0000000000,,,
6.2636718750,100,87.0000000000,,,
6.2656250000,100,91.0000000000,,,
6.2675781250,100,99.0000000000,,,
6.2695312500,100,104.0000000000,,,
6.2714843750,100,114.0000000000,,,
6.2734375000,100,92.0000000000,,,
6.2753906250,100,4.0000000000,,,
6.2773437500,100,-33.0000000000,,,
6.2792968750,100,-4.0000000000,,,
6.2812500000,100,21.0000000000,,,
6.2832031250,100,19.0000000000,,,
6.2851562500,100,16.0000000000,,,
6.2871093750,100,50.0000000000,,,
6.2890625000,100,72.0000000000,,,
6.2910156250,100,106.0000000000,,,
6.2929687500,100,140.0000000000,,,
6.2949218750,100,196.0000000000,,,
6.2968750000,100,195.0000000000,,,
6.2988281250,100,157.0000000000,,,
6.3007812500,100,53.0000000000,,,
6.3027343750,100,-23.0000000000,,,
6.3046875000,100,2.0000000000,,,
6.3066406250,100,21.0000000000,,,
6.3085937500,100,18.0000000000,,,
6.3105468750,100,34.0000000000,,,
6.3125000000,101,71.0000000000,,,
6.3144531250,101,90.0000000000,,,
6.3164062500,101,104.0000000000,,,
6.3183593750,101,115.0000000000,,,
6.3203125000,101,129.0000000000,,,
6.3222656250,101,165.0000000000,,,
6.3242187500,101,229.0000000000,,,
6.3261718750,101,247.0000000000,,,
6.3281250000,101,129.0000000000,,,
6.3300781250,101,70.0000000000,,,
6.3320312500,101,128.0000000000,,,
6.3339843750,101,204.0000000000,,,
6.3359375000,101,243.0000000000,,,
6.3378906250,101,259.0000000000,,,
6.3398437500,101,250.0000000000,,,
6.3417968750,101,266.0000000000,,,
6.3437500000,101,195.0000000000,,,
6.3457031250,101,90.0000000000,,,
6.3476562500,101,65.0000000000,,,
6.3496093750,101,76.0000000000,,,
6.3515625000,101,97.0000000000,,,
6.3535156250,101,93.0000000000,,,
6.3554687500,101,32.0000000000,,,
6.3574218750,101,-33.0000000000,,,
6.3593750000,101,-34.0000000000,,,
6.3613281250,101,-1.0000000000,,,
6.3632812500,101,4.0000000000,,,
6.3652343750,101,24.0000000000,,,
6.3671875000,101,70.0000000000,,,
6.3691406250,101,60.0000000000,,,
6.3710937500,101,-2.0000000000,,,
6.3730468750,101,-105.0000000000,,,
6.3750000000,102,-108.0000000000,,,
6.3769531250,102,-11.0000000000,,,
6.3789062500,102,21.0000000000,,,
6.3808593750,102,-6.0000000000,,,
6.3828125000,102,-61.0000000000,,,
6.3847656250,102,-102.0000000000,,,
6.3867187500,102,-105.0000000000,,,
6.3886718750,102,-99.0000000000,,,
6.3906250000,102,-93.0000000000,,,
6.3925781250,102,-60.0000000000,,,
6.3945312500,102,-14.0000000000,,,
6.3964843750,102,27.0000000000,,,
6.3984375000,102,60.0000000000,,,
6.4003906250,102,70.0000000000,,,
6.4023437500,102,39.0000000000,,,
6.4042968750,102,-1.0000000000,,,
6.4062500000,102,-20.0000000000,,,
6.4082031250,102,-26.0000000000,,,
6.4101562500,102,-44.0000000000,,,
6.4121093750,102,-67.0000000000,,,
6.4140625000,102,-71.0000000000,,,
6.4160156250,102,-66.0000000000,,,
6.4179687500,102,-56.0000000000,,,
6.4199218750,102,-7.0000000000,,,
6.4218750000,102,55.0000000000,,,
6.4238281250,102,40.0000000000,,,
6.4257812500,102,-9.0000000000,,,
6.4277343750,102,-28.0000000000,,,
6.4296875000,102,-21.0000000000,,,
6.4316406250,102,-35.0000000000,,,
6.4335937500,102,-51.0000000000,,,
6.4355468750,102,-28.0000000000,,,
6.4375000000,103,-5.0000000000,,,
6.4394531250,103,6.0000000000,,,
6.4414062500,103,-9.0000000000,,,
6.4433593750,103,-44.0000000000,,,
6.4453125000,103,-42.0000000000,,,
6.4472656250,103,-7.0000000000,,,
6.4492187500,103,11.0000000000,,,
6.4511718750,103,18.0000000000,,,
6.4531250000,103,29.0000000000,,,
6.4550781250,103,53.0000000000,,,
6.4570312500,103,74.0000000000,,,
6.4589843750,103,64.0000000000,,,
6.4609375000,103,37.0000000000,,,
6.4628906250,103,1.0000000000,,,
6.4648437500,103,-33.0000000000,,,
6.4667968750,103,-33.0000000000,,,
6.4687500000,103,21.0000000000,,,
6.4707031250,103,45.0000000000,,,
6.4726562500,103,5.0000000000,,,
6.4746093750,103,-13.0000000000,,,
6.4765625000,103,23.0000000000,,,
6.4785156250,103,85.0000000000,,,
6.4804687500,103,122.0000000000,,,
6.4824218750,103,119.0000000000,,,
6.4843750000,103,99.0000000000,,,
6.4863281250,103,76.0000000000,,,
6.4882812500,103,75.0000000000,,,
6.4902343750,103,144.0000000000,,,
6.4921875000,103,194.0000000000,,,
6.4941406250,103,138.0000000000,,,
6.4960937500,103,49.0000000000,,,
6.4980468750,103,25.0000000000,,,
6.5000000000,104,56.0000000000,,,
6.5019531250,104,88.0000000000,,,
6.5039062500,104,83.0000000000,,,
6.5058593750,104,72.0000000000,,,
6.5078125000,104,74.0000000000,,,
6.5097656250,104,72.0000000000,,,
6.5117187500,104,73.0000000000,,,
6.5136718750,104,116.0000000000,,,
6.5156250000,104,171.0000000000,,,
6.5175781250,104,193.0000000000,,,
6.5195312500,104,163.0000000000,,,
6.5214843750,104,131.0000000000,,,
6.5234375000,104,103.0000000000,,,
6.5253906250,104,76.0000000000,,,
6.5273437500,104,57.0000000000,,,
6.5292968750,104,85.0000000000,,,
6.5312500000,104,128.0000000000,,,
6.5332031250,104,105.0000000000,,,
6.5351562500,104,66.0000000000,,,
6.5371093750,104,64.0000000000,,,
6.5390625000,104,84.0000000000,,,
6.5410156250,104,108.0000000000,,,
6.5429687500,104,155.0000000000,,,
6.5449218750,104,157.0000000000,,,
6.5468750000,104,73.0000000000,,,
6.5488281250,104,6.0000000000,,,
6.5507812500,104,-5.0000000000,,,
6.5527343750,104,-45.0000000000,,,
6.5546875000,104,-27.0000000000,,,
6.5566406250,104,38.0000000000,,,
6.5585937500,104,40.0000000000,,,
6.5605468750,104,-27.0000000000,,,
6.5625000000,105,-98.0000000000,,,
6.5644531250,105,-114.0000000000,,,
6.5664062500,105,-41.0000000000,,,
6.5683593750,105,6.0000000000,,,
6.5703125000,105,32.0000000000,,,
6.5722656250,105,81.0000000000,,,
6.5742187500,105,36.0000000000,,,
6.5761718750,105,-8.0000000000,,,
6.5781250000,105,73.0000000000,,,
6.5800781250,105,139.0000000000,,,
6.5820312500,105,151.0000000000,,,
6.5839843750,105,106.0000000000,,,
6.5859375000,105,-53.0000000000,,,
6.5878906250,105,-114.0000000000,,,
6.5898437500,105,-37.0000000000,,,
6.5917968750,105,-40.0000000000,,,
6.5937500000,105,-122.0000000000,,,
6.5957031250,105,-182.0000000000,,,
6.5976562500,105,-162.0000000000,,,
6.5996093750,105,10.0000000000,,,
6.6015625000,105,182.0000000000,,,
6.6035156250,105,40.0000000000,,,
6.6054687500,105,-115.0000000000,,,
6.6074218750,105,-87.0000000000,,,
6.6093750000,105,20.0000000000,,,
6.6113281250,105,65.0000000000,,,
6.6132812500,105,-78.0000000000,,,
6.6152343750,105,-213.0000000000,,,
6.6171875000,105,-67.0000000000,,,
6.6191406250,105,138.0000000000,,,
6.6210937500,105,185.0000000000,,,
6.6230468750,105,134.0000000000,,,
6.6250000000,106,123.0000000000,,,
6.6269531250,106,196.0000000000,,,
6.6289062500,106,184.0000000000,,,
6.6308593750,106,-7.0000000000,,,
6.6328125000,106,-186.0000000000,,,
6.6347656250,106,-101.0000000000,,,
6.6367187500,106,72.0000000000,,,
6.6386718750,106,91.0000000000,,,
6.6406250000,106,136.0000000000,,,
6.6425781250,106,235.0000000000,,,
6.6445312500,106,299.0000000000,,,
6.6464843750,106,267.0000000000,,,
6.6484375000,106,113.0000000000,,,
6.6503906250,106,69.0000000000,,,
6.6523437500,106,99.0000000000,,,
6.6542968750,106,36.0000000000,,,
6.6562500000,106,39.0000000000,,,
6.6582031250,106,92.0000000000,,,
6.6601562500,106,105.0000000000,,,
6.6621093750,106,85.0000000000,,,
6.6640625000,106,105.0000000000,,,
6.6660156250,106,185.0000000000,,,
6.6679687500,106,178.0000000000,,,
6.6699218750,106,34.0000000000,,,
6.6718750000,106,-10.0000000000,,,
6.6738281250,106,21.0000000000,,,
6.6757812500,106,24.0000000000,,,
6.6777343750,106,19.0000000000,,,
6.6796875000,106,56.0000000000,,,
6.6816406250,106,105.0000000000,,,
6.6835937500,106,188.0000000000,,,
6.6855468750,106,181.0000000000,,,
6.6875000000,107,157.0000000000,,,
6.6894531250,107,106.0000000000,,,
6.6914062500,107,19.0000000000,,,
6.6933593750,107,-39.0000000000,,,
6.6953125000,107,-6.0000000000,,,
6.6972656250,107,119.0000000000,,,
6.6992187500,107,123.0000000000,,,
6.7011718750,107,-13.0000000000,,,
6.7031250000,107,-101.0000000000,,,
6.7050781250,107,-52.0000000000,,,
6.7070312500,107,10.0000000000,,,
6.7089843750,107,16.0000000000,,,
6.7109375000,107,-19.0000000000,,,
6.7128906250,107,-50.0000000000,,,
6.7148437500,107,-21.0000000000,,,
6.7167968750,107,16.0000000000,,,
6.7187500000,107,-8.0000000000,,,
6.7207031250,107,-17.0000000000,,,
6.7226562500,107,19.0000000000,,,
6.7246093750,107,34.0000000000,,,
6.7265625000,107,-12.0000000000,,,
6.7285156250,107,-18.0000000000,,,
6.7304687500,107,23.0000000000,,,
6.7324218750,107,69.0000000000,,,
6.7343750000,107,119.0000000000,,,
6.7363281250,107,28.0000000000,,,
6.7382812500,107,-2.0000000000,,,
