Time:512Hz,Epoch,Electrode,Event Id,Event Date,Event Duration
0.0000000000,0,177.0000000000,,,
0.0019531250,0,172.0000000000,,,
0.0039062500,0,185.0000000000,,,
0.0058593750,0,225.0000000000,,,
0.0078125000,0,259.0000000000,,,
0.0097656250,0,244.0000000000,,,
0.0117187500,0,186.0000000000,,,
0.0136718750,0,148.0000000000,,,
0.0156250000,0,176.0000000000,,,
0.0175781250,0,219.0000000000,,,
0.0195312500,0,202.0000000000,,,
0.0214843750,0,163.0000000000,,,
0.0234375000,0,161.0000000000,,,
0.0253906250,0,148.0000000000,,,
0.0273437500,0,117.0000000000,,,
0.0292968750,0,121.0000000000,,,
0.0312500000,0,146.0000000000,,,
0.0332031250,0,128.0000000000,,,
0.0351562500,0,86.0000000000,,,
0.0371093750,0,88.0000000000,,,
0.0390625000,0,130.0000000000,,,
0.0410156250,0,153.0000000000,,,
0.0429687500,0,147.0000000000,,,
0.0449218750,0,125.0000000000,,,
0.0468750000,0,132.0000000000,,,
0.0488281250,0,157.0000000000,,,
0.0507812500,0,198.0000000000,,,
0.0527343750,0,258.0000000000,,,
0.0546875000,0,263.0000000000,,,
0.0566406250,0,210.0000000000,,,
0.0585937500,0,155.0000000000,,,
0.0605468750,0,144.0000000000,,,
0.0625000000,1,144.0000000000,,,
0.0644531250,1,128.0000000000,,,
0.0664062500,1,124.0000000000,,,
0.0683593750,1,151.0000000000,,,
0.0703125000,1,176.0000000000,,,
0.0722656250,1,180.0000000000,,,
0.0742187500,1,165.0000000000,,,
0.0761718750,1,154.0000000000,,,
0.0781250000,1,147.0000000000,,,
0.0800781250,1,139.0000000000,,,
0.0820312500,1,146.0000000000,,,
0.0839843750,1,154.0000000000,,,
0.0859375000,1,148.0000000000,,,
0.0878906250,1,151.0000000000,,,
0.0898437500,1,145.0000000000,,,
0.0917968750,1,133.0000000000,,,
0.0937500000,1,136.0000000000,,,
0.0957031250,1,122.0000000000,,,
0.0976562500,1,70.0000000000,,,
0.0996093750,1,48.0000000000,,,
0.1015625000,1,86.0000000000,,,
0.1035156250,1,135.0000000000,,,
0.1054687500,1,120.0000000000,,,
0.1074218750,1,75.0000000000,,,
0.1093750000,1,70.0000000000,,,
0.1113281250,1,119.0000000000,,,
0.1132812500,1,157.0000000000,,,
0.1152343750,1,140.0000000000,,,
0.1171875000,1,98.0000000000,,,
0.1191406250,1,68.0000000000,,,
0.1210937500,1,80.0000000000,,,
0.1230468750,1,106.0000000000,,,
0.1250000000,2,134.0000000000,,,
0.1269531250,2,146.0000000000,,,
0.1289062500,2,146.0000000000,,,
0.1308593750,2,153.0000000000,,,
0.1328125000,2,172.0000000000,,,
0.1347656250,2,209.0000000000,,,
0.1367187500,2,228.0000000000,,,
0.1386718750,2,203.0000000000,,,
0.1406250000,2,152.0000000000,,,
0.1425781250,2,128.0000000000,,,
0.1445312500,2,131.0000000000,,,
0.1464843750,2,124.0000000000,,,
0.1484375000,2,98.0000000000,,,
0.1503906250,2,69.0000000000,,,
0.1523437500,2,53.0000000000,,,
0.1542968750,2,41.0000000000,,,
0.1562500000,2,49.0000000000,,,
0.1582031250,2,91.0000000000,,,
0.1601562500,2,118.0000000000,,,
0.1621093750,2,113.0000000000,,,
0.1640625000,2,107.0000000000,,,
0.1660156250,2,99.0000000000,,,
0.1679687500,2,80.0000000000,,,
0.1699218750,2,66.0000000000,,,
0.1718750000,2,81.0000000000,,,
0.1738281250,2,115.0000000000,,,
0.1757812500,2,114.0000000000,,,
0.1777343750,2,82.0000000000,,,
0.1796875000,2,82.0000000000,,,
0.1816406250,2,116.0000000000,,,
0.1835937500,2,164.0000000000,,,
0.1855468750,2,166.0000000000,,,
0.1875000000,3,118.0000000000,,,
0.1894531250,3,57.0000000000,,,
0.1914062500,3,20.0000000000,,,
0.1933593750,3,-4.0000000000,,,
0.1953125000,3,-24.0000000000,,,
0.1972656250,3,-8.0000000000,,,
0.1992187500,3,16.0000000000,,,
0.2011718750,3,32.0000000000,,,
0.2031250000,3,67.0000000000,,,
0.2050781250,3,117.0000000000,,,
0.2070312500,3,147.0000000000,,,
0.2089843750,3,156.0000000000,,,
0.2109375000,3,153.0000000000,,,
0.2128906250,3,170.0000000000,,,
0.2148437500,3,186.0000000000,,,
0.2167968750,3,160.0000000000,,,
0.2187500000,3,108.0000000000,,,
0.2207031250,3,103.0000000000,,,
0.2226562500,3,112.0000000000,,,
0.2246093750,3,102.0000000000,,,
0.2265625000,3,91.0000000000,,,
0.2285156250,3,116.0000000000,,,
0.2304687500,3,134.0000000000,,,
0.2324218750,3,121.0000000000,,,
0.2343750000,3,112.0000000000,,,
0.2363281250,3,107.0000000000,,,
0.2382812500,3,88.0000000000,,,
0.2402343750,3,84.0000000000,,,
0.2421875000,3,84.0000000000,,,
0.2441406250,3,67.0000000000,,,
0.2460937500,3,48.0000000000,,,
0.2480468750,3,28.0000000000,,,
0.2500000000,4,26.0000000000,,,
0.2519531250,4,36.0000000000,,,
0.2539062500,4,21.0000000000,,,
0.2558593750,4,2.0000000000,,,
0.2578125000,4,19.0000000000,,,
0.2597656250,4,51.0000000000,,,
0.2617187500,4,66.0000000000,,,
0.2636718750,4,71.0000000000,,,
0.2656250000,4,96.0000000000,,,
0.2675781250,4,121.0000000000,,,
0.2695312500,4,107.0000000000,,,
0.2714843750,4,86.0000000000,,,
0.2734375000,4,82.0000000000,,,
0.2753906250,4,69.0000000000,,,
0.2773437500,4,61.0000000000,,,
0.2792968750,4,75.0000000000,,,
0.2812500000,4,91.0000000000,,,
0.2832031250,4,105.0000000000,,,
0.2851562500,4,106.0000000000,,,
0.2871093750,4,113.0000000000,,,
0.2890625000,4,141.0000000000,,,
0.2910156250,4,139.0000000000,,,
0.2929687500,4,82.0000000000,,,
0.2949218750,4,49.0000000000,,,
0.2968750000,4,51.0000000000,,,
0.2988281250,4,39.0000000000,,,
0.3007812500,4,29.0000000000,,,
0.3027343750,4,35.0000000000,,,
0.3046875000,4,40.0000000000,,,
0.3066406250,4,67.0000000000,,,
0.3085937500,4,102.0000000000,,,
0.3105468750,4,137.0000000000,,,
0.3125000000,5,186.0000000000,,,
0.3144531250,5,205.0000000000,,,
0.3164062500,5,170.0000000000,,,
0.3183593750,5,134.0000000000,,,
0.3203125000,5,123.0000000000,,,
0.3222656250,5,123.0000000000,,,
0.3242187500,5,115.0000000000,,,
0.3261718750,5,103.0000000000,,,
0.3281250000,5,76.0000000000,,,
0.3300781250,5,58.0000000000,,,
0.3320312500,5,68.0000000000,,,
0.3339843750,5,92.0000000000,,,
0.3359375000,5,107.0000000000,,,
0.3378906250,5,92.0000000000,,,
0.3398437500,5,55.0000000000,,,
0.3417968750,5,22.0000000000,,,
0.3437500000,5,7.0000000000,,,
0.3457031250,5,6.0000000000,,,
0.3476562500,5,12.0000000000,,,
0.3496093750,5,36.0000000000,,,
0.3515625000,5,59.0000000000,,,
0.3535156250,5,82.0000000000,,,
0.3554687500,5,84.0000000000,,,
0.3574218750,5,93.0000000000,,,
0.3593750000,5,116.0000000000,,,
0.3613281250,5,112.0000000000,,,
0.3632812500,5,104.0000000000,,,
0.3652343750,5,101.0000000000,,,
0.3671875000,5,109.0000000000,,,
0.3691406250,5,107.0000000000,,,
0.3710937500,5,82.0000000000,,,
0.3730468750,5,54.0000000000,,,
0.3750000000,6,48.0000000000,,,
0.3769531250,6,41.0000000000,,,
0.3789062500,6,-2.0000000000,,,
0.3808593750,6,-23.0000000000,,,
0.3828125000,6,9.0000000000,,,
0.3847656250,6,58.0000000000,,,
0.3867187500,6,92.0000000000,,,
0.3886718750,6,73.0000000000,,,
0.3906250000,6,60.0000000000,,,
0.3925781250,6,68.0000000000,,,
0.3945312500,6,58.0000000000,,,
0.3964843750,6,23.0000000000,,,
0.3984375000,6,5.0000000000,,,
0.4003906250,6,16.0000000000,,,
0.4023437500,6,-9.0000000000,,,
0.4042968750,6,-70.0000000000,,,
0.4062500000,6,-94.0000000000,,,
0.4082031250,6,-83.0000000000,,,
0.4101562500,6,-65.0000000000,,,
0.4121093750,6,-56.0000000000,,,
0.4140625000,6,-56.0000000000,,,
0.4160156250,6,-46.0000000000,,,
0.4179687500,6,-13.0000000000,,,
0.4199218750,6,-12.0000000000,,,
0.4218750000,6,-59.0000000000,,,
0.4238281250,6,-86.0000000000,,,
0.4257812500,6,-84.0000000000,,,
0.4277343750,6,-86.0000000000,,,
0.4296875000,6,-60.0000000000,,,
0.4316406250,6,-36.0000000000,,,
0.4335937500,6,-34.0000000000,,,
0.4355468750,6,-23.0000000000,,,
0.4375000000,7,-36.0000000000,,,
0.4394531250,7,-53.0000000000,,,
0.4414062500,7,-29.0000000000,,,
0.4433593750,7,16.0000000000,,,
0.4453125000,7,16.0000000000,,,
0.4472656250,7,-43.0000000000,,,
0.4492187500,7,-90.0000000000,,,
0.4511718750,7,-91.0000000000,,,
0.4531250000,7,-72.0000000000,,,
0.4550781250,7,-76.0000000000,,,
0.4570312500,7,-91.0000000000,,,
0.4589843750,7,-62.0000000000,,,
0.4609375000,7,-13.0000000000,,,
0.4628906250,7,8.0000000000,,,
0.4648437500,7,0.0000000000,,,
0.4667968750,7,-35.0000000000,,,
0.4687500000,7,-82.0000000000,,,
0.4707031250,7,-87.0000000000,,,
0.4726562500,7,-52.0000000000,,,
0.4746093750,7,-4.0000000000,,,
0.4765625000,7,17.0000000000,,,
0.4785156250,7,16.0000000000,,,
0.4804687500,7,21.0000000000,,,
0.4824218750,7,48.0000000000,,,
0.4843750000,7,68.0000000000,,,
0.4863281250,7,86.0000000000,,,
0.4882812500,7,130.0000000000,,,
0.4902343750,7,187.0000000000,,,
0.4921875000,7,212.0000000000,,,
0.4941406250,7,205.0000000000,,,
0.4960937500,7,214.0000000000,,,
0.4980468750,7,194.0000000000,,,
0.5000000000,8,137.0000000000,,,
0.5019531250,8,128.0000000000,,,
0.5039062500,8,162.0000000000,,,
0.5058593750,8,112.0000000000,,,
0.5078125000,8,1.0000000000,,,
0.5097656250,8,-43.0000000000,,,
0.5117187500,8,-6.0000000000,,,
0.5136718750,8,36.0000000000,,,
0.5156250000,8,42.0000000000,,,
0.5175781250,8,43.0000000000,,,
0.5195312500,8,51.0000000000,,,
0.5214843750,8,68.0000000000,,,
0.5234375000,8,112.0000000000,,,
0.5253906250,8,161.0000000000,,,
0.5273437500,8,164.0000000000,,,
0.5292968750,8,145.0000000000,,,
0.5312500000,8,128.0000000000,,,
0.5332031250,8,146.0000000000,,,
0.5351562500,8,177.0000000000,,,
0.5371093750,8,209.0000000000,,,
0.5390625000,8,228.0000000000,,,
0.5410156250,8,220.0000000000,,,
0.5429687500,8,212.0000000000,,,
0.5449218750,8,230.0000000000,,,
0.5468750000,8,257.0000000000,,,
0.5488281250,8,282.0000000000,,,
0.5507812500,8,325.0000000000,,,
0.5527343750,8,347.0000000000,,,
0.5546875000,8,308.0000000000,,,
0.5566406250,8,265.0000000000,,,
0.5585937500,8,284.0000000000,,,
0.5605468750,8,343.0000000000,,,
0.5625000000,9,368.0000000000,,,
0.5644531250,9,314.0000000000,,,
0.5664062500,9,225.0000000000,,,
0.5683593750,9,147.0000000000,,,
0.5703125000,9,102.0000000000,,,
0.5722656250,9,73.0000000000,,,
0.5742187500,9,58.0000000000,,,
0.5761718750,9,69.0000000000,,,
0.5781250000,9,100.0000000000,,,
0.5800781250,9,140.0000000000,,,
0.5820312500,9,179.0000000000,,,
0.5839843750,9,187.0000000000,,,
0.5859375000,9,182.0000000000,,,
0.5878906250,9,203.0000000000,,,
0.5898437500,9,244.0000000000,,,
0.5917968750,9,259.0000000000,,,
0.5937500000,9,236.0000000000,,,
0.5957031250,9,201.0000000000,,,
0.5976562500,9,186.0000000000,,,
0.5996093750,9,204.0000000000,,,
0.6015625000,9,228.0000000000,,,
0.6035156250,9,247.0000000000,,,
0.6054687500,9,252.0000000000,,,
0.6074218750,9,248.0000000000,,,
0.6093750000,9,249.0000000000,,,
0.6113281250,9,258.0000000000,,,
0.6132812500,9,244.0000000000,,,
0.6152343750,9,233.0000000000,,,
0.6171875000,9,256.0000000000,,,
0.6191406250,9,265.0000000000,,,
0.6210937500,9,231.0000000000,,,
0.6230468750,9,193.0000000000,,,
0.6250000000,10,193.0000000000,,,
0.6269531250,10,198.0000000000,,,
0.6289062500,10,198.0000000000,,,
0.6308593750,10,197.0000000000,,,
0.6328125000,10,199.0000000000,,,
0.6347656250,10,195.0000000000,,,
0.6367187500,10,180.0000000000,,,
0.6386718750,10,177.0000000000,,,
0.6406250000,10,202.0000000000,,,
0.6425781250,10,224.0000000000,,,
0.6445312500,10,225.0000000000,,,
0.6464843750,10,178.0000000000,,,
0.6484375000,10,122.0000000000,,,
0.6503906250,10,102.0000000000,,,
0.6523437500,10,112.0000000000,,,
0.6542968750,10,121.0000000000,,,
0.6562500000,10,101.0000000000,,,
0.6582031250,10,50.0000000000,,,
0.6601562500,10,18.0000000000,,,
0.6621093750,10,12.0000000000,,,
0.6640625000,10,12.0000000000,,,
0.6660156250,10,27.0000000000,,,
0.6679687500,10,39.0000000000,,,
0.6699218750,10,49.0000000000,,,
0.6718750000,10,76.0000000000,,,
0.6738281250,10,104.0000000000,,,
0.6757812500,10,103.0000000000,,,
0.6777343750,10,107.0000000000,,,
0.6796875000,10,116.0000000000,,,
0.6816406250,10,113.0000000000,,,
0.6835937500,10,97.0000000000,,,
0.6855468750,10,74.0000000000,,,
0.6875000000,11,38.0000000000,,,
0.6894531250,11,22.0000000000,,,
0.6914062500,11,24.0000000000,,,
0.6933593750,11,11.0000000000,,,
0.6953125000,11,-1.0000000000,,,
0.6972656250,11,7.0000000000,,,
0.6992187500,11,44.0000000000,,,
0.7011718750,11,81.0000000000,,,
0.7031250000,11,91.0000000000,,,
0.7050781250,11,82.0000000000,,,
0.7070312500,11,71.0000000000,,,
0.7089843750,11,68.0000000000,,,
0.7109375000,11,75.0000000000,,,
0.7128906250,11,86.0000000000,,,
0.7148437500,11,85.0000000000,,,
0.7167968750,11,77.0000000000,,,
0.7187500000,11,64.0000000000,,,
0.7207031250,11,70.0000000000,,,
0.7226562500,11,103.0000000000,,,
0.7246093750,11,132.0000000000,,,
0.7265625000,11,130.0000000000,,,
0.7285156250,11,103.0000000000,,,
0.7304687500,11,88.0000000000,,,
0.7324218750,11,74.0000000000,,,
0.7343750000,11,18.0000000000,,,
0.7363281250,11,-45.0000000000,,,
0.7382812500,11,-67.0000000000,,,
0.7402343750,11,-44.0000000000,,,
0.7421875000,11,-33.0000000000,,,
0.7441406250,11,-43.0000000000,,,
0.7460937500,11,-40.0000000000,,,
0.7480468750,11,-9.0000000000,,,
0.7500000000,12,34.0000000000,,,
0.7519531250,12,60.0000000000,,,
0.7539062500,12,59.0000000000,,,
0.7558593750,12,39.0000000000,,,
0.7578125000,12,4.0000000000,,,
0.7597656250,12,-21.0000000000,,,
0.7617187500,12,-27.0000000000,,,
0.7636718750,12,-23.0000000000,,,
0.7656250000,12,-11.0000000000,,,
0.7675781250,12,-2.0000000000,,,
0.7695312500,12,-18.0000000000,,,
0.7714843750,12,-52.0000000000,,,
0.7734375000,12,-73.0000000000,,,
0.7753906250,12,-74.0000000000,,,
0.7773437500,12,-59.0000000000,,,
0.7792968750,12,-53.0000000000,,,
0.7812500000,12,-38.0000000000,,,
0.7832031250,12,-12.0000000000,,,
0.7851562500,12,-11.0000000000,,,
0.7871093750,12,-24.0000000000,,,
0.7890625000,12,-8.0000000000,,,
0.7910156250,12,11.0000000000,,,
0.7929687500,12,8.0000000000,,,
0.7949218750,12,10.0000000000,,,
0.7968750000,12,44.0000000000,,,
0.7988281250,12,70.0000000000,,,
0.8007812500,12,76.0000000000,,,
0.8027343750,12,59.0000000000,,,
0.8046875000,12,16.0000000000,,,
0.8066406250,12,-5.0000000000,,,
0.8085937500,12,-6.0000000000,,,
0.8105468750,12,-34.0000000000,,,
0.8125000000,13,-57.0000000000,,,
0.8144531250,13,-56.0000000000,,,
0.8164062500,13,-35.0000000000,,,
0.8183593750,13,-8.0000000000,,,
0.8203125000,13,6.0000000000,,,
0.8222656250,13,28.0000000000,,,
0.8242187500,13,73.0000000000,,,
0.8261718750,13,134.0000000000,,,
0.8281250000,13,164.0000000000,,,
0.8300781250,13,163.0000000000,,,
0.8320312500,13,149.0000000000,,,
0.8339843750,13,144.0000000000,,,
0.8359375000,13,133.0000000000,,,
0.8378906250,13,105.0000000000,,,
0.8398437500,13,75.0000000000,,,
0.8417968750,13,55.0000000000,,,
0.8437500000,13,26.0000000000,,,
0.8457031250,13,20.0000000000,,,
0.8476562500,13,32.0000000000,,,
0.8496093750,13,48.0000000000,,,
0.8515625000,13,57.0000000000,,,
0.8535156250,13,70.0000000000,,,
0.8554687500,13,100.0000000000,,,
0.8574218750,13,121.0000000000,,,
0.8593750000,13,96.0000000000,,,
0.8613281250,13,34.0000000000,,,
0.8632812500,13,-28.0000000000,,,
0.8652343750,13,-93.0000000000,,,
0.8671875000,13,-125.0000000000,,,
0.8691406250,13,-116.0000000000,,,
0.8710937500,13,-76.0000000000,,,
0.8730468750,13,-12.0000000000,,,
0.8750000000,14,64.0000000000,,,
0.8769531250,14,97.0000000000,,,
0.8789062500,14,74.0000000000,,,
0.8808593750,14,44.0000000000,,,
0.8828125000,14,71.0000000000,,,
0.8847656250,14,137.0000000000,,,
0.8867187500,14,197.0000000000,,,
0.8886718750,14,208.0000000000,,,
0.8906250000,14,176.0000000000,,,
0.8925781250,14,150.0000000000,,,
0.8945312500,14,183.0000000000,,,
0.8964843750,14,235.0000000000,,,
0.8984375000,14,295.0000000000,,,
0.9003906250,14,338.0000000000,,,
0.9023437500,14,338.0000000000,,,
0.9042968750,14,316.0000000000,,,
0.9062500000,14,322.0000000000,,,
0.9082031250,14,352.0000000000,,,
0.9101562500,14,384.0000000000,,,
0.9121093750,14,386.0000000000,,,
0.9140625000,14,364.0000000000,,,
0.9160156250,14,320.0000000000,,,
0.9179687500,14,252.0000000000,,,
0.9199218750,14,200.0000000000,,,
0.9218750000,14,171.0000000000,,,
0.9238281250,14,186.0000000000,,,
0.9257812500,14,215.0000000000,,,
0.9277343750,14,229.0000000000,,,
0.9296875000,14,236.0000000000,,,
0.9316406250,14,252.0000000000,,,
0.9335937500,14,234.0000000000,,,
0.9355468750,14,165.0000000000,,,
0.9375000000,15,101.0000000000,,,
0.9394531250,15,80.0000000000,,,
0.9414062500,15,68.0000000000,,,
0.9433593750,15,45.0000000000,,,
0.9453125000,15,4.0000000000,,,
0.9472656250,15,-35.0000000000,,,
0.9492187500,15,-52.0000000000,,,
0.9511718750,15,-94.0000000000,,,
0.9531250000,15,-142.0000000000,,,
0.9550781250,15,-154.0000000000,,,
0.9570312500,15,-164.0000000000,,,
0.9589843750,15,-182.0000000000,,,
0.9609375000,15,-212.0000000000,,,
0.9628906250,15,-257.0000000000,,,
0.9648437500,15,-295.0000000000,,,
0.9667968750,15,-347.0000000000,,,
0.9687500000,15,-382.0000000000,,,
0.9707031250,15,-379.0000000000,,,
0.9726562500,15,-373.0000000000,,,
0.9746093750,15,-386.0000000000,,,
0.9765625000,15,-413.0000000000,,,
0.9785156250,15,-422.0000000000,,,
0.9804687500,15,-378.0000000000,,,
0.9824218750,15,-353.0000000000,,,
0.9843750000,15,-314.0000000000,,,
0.9863281250,15,-264.0000000000,,,
0.9882812500,15,-244.0000000000,,,
0.9902343750,15,-286.0000000000,,,
0.9921875000,15,-348.0000000000,,,
0.9941406250,15,-393.0000000000,,,
0.9960937500,15,-396.0000000000,,,
0.9980468750,15,-361.0000000000,,,
1.0000000000,16,-349.0000000000,,,
1.0019531250,16,-378.0000000000,,,
1.0039062500,16,-405.0000000000,,,
1.0058593750,16,-412.0000000000,,,
1.0078125000,16,-455.0000000000,,,
1.0097656250,16,-478.0000000000,,,
1.0117187500,16,-422.0000000000,,,
1.0136718750,16,-364.0000000000,,,
1.0156250000,16,-358.0000000000,,,
1.0175781250,16,-353.0000000000,,,
1.0195312500,16,-340.0000000000,,,
1.0214843750,16,-345.0000000000,,,
1.0234375000,16,-366.0000000000,,,
1.0253906250,16,-381.0000000000,,,
1.0273437500,16,-390.0000000000,,,
1.0292968750,16,-404.0000000000,,,
1.0312500000,16,-450.0000000000,,,
1.0332031250,16,-475.0000000000,,,
1.0351562500,16,-441.0000000000,,,
1.0371093750,16,-370.0000000000,,,
1.0390625000,16,-299.0000000000,,,
1.0410156250,16,-268.0000000000,,,
1.0429687500,16,-278.0000000000,,,
1.0449218750,16,-260.0000000000,,,
1.0468750000,16,-195.0000000000,,,
1.0488281250,16,-126.0000000000,,,
1.0507812500,16,-91.0000000000,,,
1.0527343750,16,-67.0000000000,,,
1.0546875000,16,-28.0000000000,,,
1.0566406250,16,24.0000000000,,,
1.0585937500,16,70.0000000000,,,
1.0605468750,16,77.0000000000,,,
1.0625000000,17,57.0000000000,,,
1.0644531250,17,40.0000000000,,,
1.0664062500,17,24.0000000000,,,
1.0683593750,17,11.0000000000,,,
1.0703125000,17,-9.0000000000,,,
1.0722656250,17,-23.0000000000,,,
1.0742187500,17,9.0000000000,,,
1.0761718750,17,60.0000000000,,,
1.0781250000,17,123.0000000000,,,
1.0800781250,17,210.0000000000,,,
1.0820312500,17,235.0000000000,,,
1.0839843750,17,243.0000000000,,,
1.0859375000,17,252.0000000000,,,
1.0878906250,17,268.0000000000,,,
1.0898437500,17,281.0000000000,,,
1.0917968750,17,265.0000000000,,,
1.0937500000,17,272.0000000000,,,
1.0957031250,17,281.0000000000,,,
1.0976562500,17,268.0000000000,,,
1.0996093750,17,268.0000000000,,,
1.1015625000,17,283.0000000000,,,
1.1035156250,17,296.0000000000,,,
1.1054687500,17,314.0000000000,,,
1.1074218750,17,297.0000000000,,,
1.1093750000,17,277.0000000000,,,
1.1113281250,17,257.0000000000,,,
1.1132812500,17,216.0000000000,,,
1.1152343750,17,201.0000000000,,,
1.1171875000,17,214.0000000000,,,
1.1191406250,17,236.0000000000,,,
1.1210937500,17,244.0000000000,,,
1.1230468750,17,243.0000000000,,,
1.1250000000,18,269.0000000000,,,
1.1269531250,18,317.0000000000,,,
1.1289062500,18,331.0000000000,,,
1.1308593750,18,315.0000000000,,,
1.1328125000,18,294.0000000000,,,
1.1347656250,18,275.0000000000,,,
1.1367187500,18,243.0000000000,,,
1.1386718750,18,203.0000000000,,,
1.1406250000,18,173.0000000000,,,
1.1425781250,18,154.0000000000,,,
1.1445312500,18,134.0000000000,,,
1.1464843750,18,106.0000000000,,,
1.1484375000,18,86.0000000000,,,
1.1503906250,18,102.0000000000,,,
1.1523437500,18,116.0000000000,,,
1.1542968750,18,101.0000000000,,,
1.1562500000,18,77.0000000000,,,
1.1582031250,18,55.0000000000,,,
1.1601562500,18,51.0000000000,,,
1.1621093750,18,61.0000000000,,,
1.1640625000,18,89.0000000000,,,
1.1660156250,18,134.0000000000,,,
1.1679687500,18,153.0000000000,,,
1.1699218750,18,122.0000000000,,,
1.1718750000,18,112.0000000000,,,
1.1738281250,18,155.0000000000,,,
1.1757812500,18,186.0000000000,,,
1.1777343750,18,169.0000000000,,,
1.1796875000,18,140.0000000000,,,
1.1816406250,18,134.0000000000,,,
1.1835937500,18,122.0000000000,,,
1.1855468750,18,82.0000000000,,,
1.1875000000,19,39.0000000000,,,
1.1894531250,19,35.0000000000,,,
1.1914062500,19,54.0000000000,,,
1.1933593750,19,54.0000000000,,,
1.1953125000,19,42.0000000000,,,
1.1972656250,19,24.0000000000,,,
1.1992187500,19,-9.0000000000,,,
1.2011718750,19,-57.0000000000,,,
1.2031250000,19,-53.0000000000,,,
1.2050781250,19,-9.0000000000,,,
1.2070312500,19,18.0000000000,,,
1.2089843750,19,2.0000000000,,,
1.2109375000,19,-39.0000000000,,,
1.2128906250,19,-93.0000000000,,,
1.2148437500,19,-116.0000000000,,,
1.2167968750,19,-106.0000000000,,,
1.2187500000,19,-97.0000000000,,,
1.2207031250,19,-73.0000000000,,,
1.2226562500,19,-27.0000000000,,,
1.2246093750,19,24.0000000000,,,
1.2265625000,19,34.0000000000,,,
1.2285156250,19,25.0000000000,,,
1.2304687500,19,7.0000000000,,,
1.2324218750,19,8.0000000000,,,
1.2343750000,19,1.0000000000,,,
1.2363281250,19,-34.0000000000,,,
1.2382812500,19,-77.0000000000,,,
1.2402343750,19,-116.0000000000,,,
1.2421875000,19,-157.0000000000,,,
1.2441406250,19,-138.0000000000,,,
1.2460937500,19,-61.0000000000,,,
1.2480468750,19,5.0000000000,,,
1.2500000000,20,59.0000000000,,,
1.2519531250,20,72.0000000000,,,
1.2539062500,20,55.0000000000,,,
1.2558593750,20,65.0000000000,,,
1.2578125000,20,65.0000000000,,,
1.2597656250,20,28.0000000000,,,
1.2617187500,20,-13.0000000000,,,
1.2636718750,20,-38.0000000000,,,
1.2656250000,20,-23.0000000000,,,
1.2675781250,20,-9.0000000000,,,
1.2695312500,20,8.0000000000,,,
1.2714843750,20,33.0000000000,,,
1.2734375000,20,42.0000000000,,,
1.2753906250,20,13.0000000000,,,
1.2773437500,20,-21.0000000000,,,
1.2792968750,20,-39.0000000000,,,
1.2812500000,20,-39.0000000000,,,
1.2832031250,20,-22.0000000000,,,
1.2851562500,20,-20.0000000000,,,
1.2871093750,20,-35.0000000000,,,
1.2890625000,20,-72.0000000000,,,
1.2910156250,20,-108.0000000000,,,
1.2929687500,20,-110.0000000000,,,
1.2949218750,20,-68.0000000000,,,
1.2968750000,20,-6.0000000000,,,
1.2988281250,20,32.0000000000,,,
1.3007812500,20,22.0000000000,,,
1.3027343750,20,-3.0000000000,,,
1.3046875000,20,5.0000000000,,,
1.3066406250,20,24.0000000000,,,
1.3085937500,20,11.0000000000,,,
1.3105468750,20,-6.0000000000,,,
1.3125000000,21,1.0000000000,,,
1.3144531250,21,-1.0000000000,,,
1.3164062500,21,-27.0000000000,,,
1.3183593750,21,-8.0000000000,,,
1.3203125000,21,33.0000000000,,,
1.3222656250,21,64.0000000000,,,
1.3242187500,21,86.0000000000,,,
1.3261718750,21,99.0000000000,,,
1.3281250000,21,99.0000000000,,,
1.3300781250,21,96.0000000000,,,
1.3320312500,21,85.0000000000,,,
1.3339843750,21,71.0000000000,,,
1.3359375000,21,75.0000000000,,,
1.3378906250,21,90.0000000000,,,
1.3398437500,21,100.0000000000,,,
1.3417968750,21,92.0000000000,,,
1.3437500000,21,93.0000000000,,,
1.3457031250,21,86.0000000000,,,
1.3476562500,21,89.0000000000,,,
1.3496093750,21,114.0000000000,,,
1.3515625000,21,117.0000000000,,,
1.3535156250,21,73.0000000000,,,
1.3554687500,21,-22.0000000000,,,
1.3574218750,21,-62.0000000000,,,
1.3593750000,21,-50.0000000000,,,
1.3613281250,21,-66.0000000000,,,
1.3632812500,21,-81.0000000000,,,
1.3652343750,21,-89.0000000000,,,
1.3671875000,21,-87.0000000000,,,
1.3691406250,21,-46.0000000000,,,
1.3710937500,21,-2.0000000000,,,
1.3730468750,21,9.0000000000,,,
1.3750000000,22,-22.0000000000,,,
1.3769531250,22,-23.0000000000,,,
1.3789062500,22,16.0000000000,,,
1.3808593750,22,28.0000000000,,,
1.3828125000,22,-2.0000000000,,,
1.3847656250,22,-29.0000000000,,,
1.3867187500,22,6.0000000000,,,
1.3886718750,22,74.0000000000,,,
1.3906250000,22,131.0000000000,,,
1.3925781250,22,165.0000000000,33553,1.3925781250,0.0019531250
1.3945312500,22,165.0000000000,33554,1.3945312500,0.0000000000
1.3964843750,22,172.0000000000,,,
1.3984375000,22,167.0000000000,,,
1.4003906250,22,171.0000000000,,,
1.4023437500,22,173.0000000000,,,
1.4042968750,22,161.0000000000,,,
1.4062500000,22,128.0000000000,,,
1.4082031250,22,97.0000000000,,,
1.4101562500,22,82.0000000000,,,
1.4121093750,22,66.0000000000,,,
1.4140625000,22,41.0000000000,,,
1.4160156250,22,22.0000000000,,,
1.4179687500,22,35.0000000000,,,
1.4199218750,22,41.0000000000,,,
1.4218750000,22,9.0000000000,,,
1.4238281250,22,-9.0000000000,,,
1.4257812500,22,1.0000000000,,,
1.4277343750,22,9.0000000000,,,
1.4296875000,22,3.0000000000,,,
1.4316406250,22,-23.0000000000,,,
1.4335937500,22,-66.0000000000,,,
1.4355468750,22,-92.0000000000,,,
1.4375000000,23,-103.0000000000,,,
1.4394531250,23,-98.0000000000,,,
1.4414062500,23,-71.0000000000,,,
1.4433593750,23,-22.0000000000,,,
1.4453125000,23,16.0000000000,,,
1.4472656250,23,42.0000000000,,,
1.4492187500,23,74.0000000000,,,
1.4511718750,23,116.0000000000,,,
1.4531250000,23,125.0000000000,,,
1.4550781250,23,86.0000000000,,,
1.4570312500,23,45.0000000000,,,
1.4589843750,23,8.0000000000,,,
1.4609375000,23,-17.0000000000,,,
1.4628906250,23,-50.0000000000,,,
1.4648437500,23,-88.0000000000,,,
1.4667968750,23,-108.0000000000,,,
1.4687500000,23,-100.0000000000,,,
1.4707031250,23,-69.0000000000,,,
1.4726562500,23,0.0000000000,,,
1.4746093750,23,56.0000000000,,,
1.4765625000,23,80.0000000000,,,
1.4785156250,23,130.0000000000,,,
1.4804687500,23,195.0000000000,,,
1.4824218750,23,237.0000000000,,,
1.4843750000,23,246.0000000000,,,
1.4863281250,23,237.0000000000,,,
1.4882812500,23,226.0000000000,,,
1.4902343750,23,210.0000000000,,,
1.4921875000,23,208.0000000000,,,
1.4941406250,23,228.0000000000,,,
1.4960937500,23,258.0000000000,,,
1.4980468750,23,266.0000000000,,,
1.5000000000,24,276.0000000000,,,
1.5019531250,24,293.0000000000,,,
1.5039062500,24,280.0000000000,,,
1.5058593750,24,249.0000000000,,,
1.5078125000,24,257.0000000000,,,
1.5097656250,24,257.0000000000,,,
1.5117187500,24,229.0000000000,,,
1.5136718750,24,210.0000000000,,,
1.5156250000,24,230.0000000000,,,
1.5175781250,24,283.0000000000,,,
1.5195312500,24,317.0000000000,,,
1.5214843750,24,320.0000000000,,,
1.5234375000,24,282.0000000000,,,
1.5253906250,24,214.0000000000,,,
1.5273437500,24,166.0000000000,,,
1.5292968750,24,165.0000000000,,,
1.5312500000,24,168.0000000000,,,
1.5332031250,24,137.0000000000,,,
1.5351562500,24,117.0000000000,,,
1.5371093750,24,130.0000000000,,,
1.5390625000,24,144.0000000000,,,
1.5410156250,24,168.0000000000,,,
1.5429687500,24,221.0000000000,,,
1.5449218750,24,240.0000000000,,,
1.5468750000,24,211.0000000000,,,
1.5488281250,24,184.0000000000,,,
1.5507812500,24,155.0000000000,,,
1.5527343750,24,132.0000000000,,,
1.5546875000,24,107.0000000000,,,
1.5566406250,24,98.0000000000,,,
1.5585937500,24,103.0000000000,,,
1.5605468750,24,117.0000000000,,,
1.5625000000,25,161.0000000000,,,
1.5644531250,25,203.0000000000,,,
1.5664062500,25,204.0000000000,,,
1.5683593750,25,145.0000000000,,,
1.5703125000,25,97.0000000000,,,
1.5722656250,25,114.0000000000,,,
1.5742187500,25,161.0000000000,,,
1.5761718750,25,166.0000000000,,,
1.5781250000,25,116.0000000000,,,
1.5800781250,25,103.0000000000,,,
1.5820312500,25,122.0000000000,,,
1.5839843750,25,70.0000000000,,,
1.5859375000,25,0.0000000000,,,
1.5878906250,25,8.0000000000,,,
1.5898437500,25,59.0000000000,,,
1.5917968750,25,84.0000000000,,,
1.5937500000,25,34.0000000000,,,
1.5957031250,25,-14.0000000000,,,
1.5976562500,25,-9.0000000000,,,
1.5996093750,25,22.0000000000,,,
1.6015625000,25,58.0000000000,,,
1.6035156250,25,96.0000000000,,,
1.6054687500,25,82.0000000000,,,
1.6074218750,25,4.0000000000,,,
1.6093750000,25,-38.0000000000,,,
1.6113281250,25,-1.0000000000,,,
1.6132812500,25,53.0000000000,,,
1.6152343750,25,70.0000000000,,,
1.6171875000,25,66.0000000000,,,
1.6191406250,25,68.0000000000,,,
1.6210937500,25,97.0000000000,,,
1.6230468750,25,98.0000000000,,,
1.6250000000,26,82.0000000000,,,
1.6269531250,26,67.0000000000,,,
1.6289062500,26,41.0000000000,,,
1.6308593750,26,25.0000000000,,,
1.6328125000,26,28.0000000000,,,
1.6347656250,26,32.0000000000,,,
1.6367187500,26,19.0000000000,,,
1.6386718750,26,-13.0000000000,,,
1.6406250000,26,-27.0000000000,,,
1.6425781250,26,-8.0000000000,,,
1.6445312500,26,22.0000000000,,,
1.6464843750,26,12.0000000000,,,
1.6484375000,26,-44.0000000000,,,
1.6503906250,26,-74.0000000000,,,
1.6523437500,26,-44.0000000000,,,
1.6542968750,26,-25.0000000000,,,
1.6562500000,26,-52.0000000000,,,
1.6582031250,26,-76.0000000000,,,
1.6601562500,26,-66.0000000000,,,
1.6621093750,26,-23.0000000000,,,
1.6640625000,26,11.0000000000,,,
1.6660156250,26,9.0000000000,,,
1.6679687500,26,-24.0000000000,,,
1.6699218750,26,-25.0000000000,,,
1.6718750000,26,22.0000000000,,,
1.6738281250,26,39.0000000000,,,
1.6757812500,26,2.0000000000,,,
1.6777343750,26,-43.0000000000,,,
1.6796875000,26,-65.0000000000,,,
1.6816406250,26,-52.0000000000,,,
1.6835937500,26,-26.0000000000,,,
1.6855468750,26,-5.0000000000,,,
1.6875000000,27,2.0000000000,,,
1.6894531250,27,-9.0000000000,,,
1.6914062500,27,-40.0000000000,,,
1.6933593750,27,-71.0000000000,,,
1.6953125000,27,-69.0000000000,,,
1.6972656250,27,-73.0000000000,,,
1.6992187500,27,-107.0000000000,,,
1.7011718750,27,-118.0000000000,,,
1.7031250000,27,-92.0000000000,,,
1.7050781250,27,-44.0000000000,,,
1.7070312500,27,11.0000000000,,,
1.7089843750,27,60.0000000000,,,
1.7109375000,27,88.0000000000,,,
1.7128906250,27,91.0000000000,,,
1.7148437500,27,76.0000000000,,,
1.7167968750,27,73.0000000000,,,
1.7187500000,27,84.0000000000,,,
1.7207031250,27,74.0000000000,,,
1.7226562500,27,66.0000000000,,,
1.7246093750,27,54.0000000000,,,
1.7265625000,27,56.0000000000,,,
1.7285156250,27,73.0000000000,,,
1.7304687500,27,87.0000000000,,,
1.7324218750,27,132.0000000000,,,
1.7343750000,27,176.0000000000,,,
1.7363281250,27,157.0000000000,,,
1.7382812500,27,91.0000000000,,,
1.7402343750,27,70.0000000000,,,
1.7421875000,27,103.0000000000,,,
1.7441406250,27,120.0000000000,,,
1.7460937500,27,115.0000000000,,,
1.7480468750,27,115.0000000000,,,
1.7500000000,28,88.0000000000,,,
1.7519531250,28,53.0000000000,,,
1.7539062500,28,49.0000000000,,,
1.7558593750,28,37.0000000000,,,
1.7578125000,28,18.0000000000,,,
1.7597656250,28,32.0000000000,,,
1.7617187500,28,44.0000000000,,,
1.7636718750,28,1.0000000000,,,
1.7656250000,28,-28.0000000000,,,
1.7675781250,28,-42.0000000000,,,
1.7695312500,28,-28.0000000000,,,
1.7714843750,28,-14.0000000000,,,
1.7734375000,28,-11.0000000000,,,
1.7753906250,28,-21.0000000000,,,
1.7773437500,28,-12.0000000000,,,
1.7792968750,28,25.0000000000,,,
1.7812500000,28,41.0000000000,,,
1.7832031250,28,28.0000000000,,,
1.7851562500,28,26.0000000000,,,
1.7871093750,28,41.0000000000,,,
1.7890625000,28,41.0000000000,,,
1.7910156250,28,26.0000000000,,,
1.7929687500,28,10.0000000000,,,
1.7949218750,28,6.0000000000,,,
1.7968750000,28,4.0000000000,,,
1.7988281250,28,6.0000000000,,,
1.8007812500,28,41.0000000000,,,
1.8027343750,28,56.0000000000,,,
1.8046875000,28,24.0000000000,,,
1.8066406250,28,5.0000000000,,,
1.8085937500,28,3.0000000000,,,
1.8105468750,28,2.0000000000,,,
1.8125000000,29,-8.0000000000,,,
1.8144531250,29,-50.0000000000,,,
1.8164062500,29,-88.0000000000,,,
1.8183593750,29,-88.0000000000,,,
1.8203125000,29,-54.0000000000,,,
1.8222656250,29,-14.0000000000,,,
1.8242187500,29,-30.0000000000,,,
1.8261718750,29,-92.0000000000,,,
1.8281250000,29,-126.0000000000,,,
1.8300781250,29,-106.0000000000,,,
1.8320312500,29,-52.0000000000,,,
1.8339843750,29,-10.0000000000,,,
1.8359375000,29,-20.0000000000,,,
1.8378906250,29,-49.0000000000,,,
1.8398437500,29,-59.0000000000,,,
1.8417968750,29,-65.0000000000,,,
1.8437500000,29,-90.0000000000,,,
1.8457031250,29,-114.0000000000,,,
1.8476562500,29,-103.0000000000,,,
1.8496093750,29,-71.0000000000,,,
1.8515625000,29,-67.0000000000,,,
1.8535156250,29,-83.0000000000,,,
1.8554687500,29,-69.0000000000,,,
1.8574218750,29,-49.0000000000,,,
1.8593750000,29,-37.0000000000,,,
1.8613281250,29,-50.0000000000,,,
1.8632812500,29,-50.0000000000,,,
1.8652343750,29,-30.0000000000,,,
1.8671875000,29,-21.0000000000,,,
1.8691406250,29,-37.0000000000,,,
1.8710937500,29,-73.0000000000,,,
1.8730468750,29,-59.0000000000,,,
1.8750000000,30,-1.0000000000,,,
1.8769531250,30,52.0000000000,,,
1.8789062500,30,70.0000000000,,,
1.8808593750,30,77.0000000000,,,
1.8828125000,30,88.0000000000,,,
1.8847656250,30,74.0000000000,,,
1.8867187500,30,73.0000000000,,,
1.8886718750,30,83.0000000000,,,
1.8906250000,30,97.0000000000,,,
1.8925781250,30,100.0000000000,,,
1.8945312500,30,68.0000000000,,,
1.8964843750,30,66.0000000000,,,
1.8984375000,30,107.0000000000,,,
1.9003906250,30,132.0000000000,,,
1.9023437500,30,129.0000000000,,,
1.9042968750,30,124.0000000000,,,
1.9062500000,30,108.0000000000,,,
1.9082031250,30,90.0000000000,,,
1.9101562500,30,104.0000000000,,,
1.9121093750,30,117.0000000000,,,
1.9140625000,30,109.0000000000,,,
1.9160156250,30,86.0000000000,,,
1.9179687500,30,70.0000000000,,,
1.9199218750,30,58.0000000000,,,
1.9218750000,30,33.0000000000,,,
1.9238281250,30,37.0000000000,,,
1.9257812500,30,60.0000000000,,,
1.9277343750,30,99.0000000000,,,
1.9296875000,30,116.0000000000,,,
1.9316406250,30,81.0000000000,,,
1.9335937500,30,42.0000000000,,,
1.9355468750,30,24.0000000000,,,
1.9375000000,31,38.0000000000,,,
1.9394531250,31,66.0000000000,,,
1.9414062500,31,70.0000000000,,,
1.9433593750,31,56.0000000000,,,
1.9453125000,31,44.0000000000,,,
1.9472656250,31,38.0000000000,,,
1.9492187500,31,17.0000000000,,,
1.9511718750,31,-17.0000000000,,,
1.9531250000,31,-41.0000000000,,,
1.9550781250,31,-43.0000000000,,,
1.9570312500,31,-39.0000000000,,,
1.9589843750,31,-19.0000000000,,,
1.9609375000,31,-13.0000000000,,,
1.9628906250,31,-39.0000000000,,,
1.9648437500,31,-43.0000000000,,,
1.9667968750,31,4.0000000000,,,
1.9687500000,31,52.0000000000,,,
1.9707031250,31,59.0000000000,,,
1.9726562500,31,57.0000000000,,,
1.9746093750,31,54.0000000000,,,
1.9765625000,31,49.0000000000,,,
1.9785156250,31,49.0000000000,,,
1.9804687500,31,61.0000000000,,,
1.9824218750,31,92.0000000000,,,
1.9843750000,31,107.0000000000,,,
1.9863281250,31,60.0000000000,,,
1.9882812500,31,6.0000000000,,,
1.9902343750,31,4.0000000000,,,
1.9921875000,31,52.0000000000,,,
1.9941406250,31,109.0000000000,,,
1.9960937500,31,117.0000000000,,,
1.9980468750,31,57.0000000000,,,
2.0000000000,32,-26.0000000000,,,
2.0019531250,32,-37.0000000000,,,
2.0039062500,32,19.0000000000,,,
2.0058593750,32,72.0000000000,,,
2.0078125000,32,134.0000000000,,,
2.0097656250,32,149.0000000000,,,
2.0117187500,32,77.0000000000,,,
2.0136718750,32,33.0000000000,,,
2.0156250000,32,45.0000000000,,,
2.0175781250,32,71.0000000000,,,
2.0195312500,32,53.0000000000,,,
2.0214843750,32,2.0000000000,,,
2.0234375000,32,-44.0000000000,,,
2.0253906250,32,-44.0000000000,,,
2.0273437500,32,-11.0000000000,,,
2.0292968750,32,-3.0000000000,,,
2.0312500000,32,10.0000000000,,,
2.0332031250,32,57.0000000000,,,
2.0351562500,32,99.0000000000,,,
2.0371093750,32,86.0000000000,,,
2.0390625000,32,58.0000000000,,,
2.0410156250,32,55.0000000000,,,
2.0429687500,32,71.0000000000,,,
2.0449218750,32,48.0000000000,,,
2.0468750000,32,37.0000000000,,,
2.0488281250,32,58.0000000000,,,
2.0507812500,32,67.0000000000,,,
2.0527343750,32,69.0000000000,,,
2.0546875000,32,101.0000000000,,,
2.0566406250,32,132.0000000000,,,
2.0585937500,32,117.0000000000,,,
2.0605468750,32,90.0000000000,,,
2.0625000000,33,85.0000000000,,,
2.0644531250,33,87.0000000000,,,
2.0664062500,33,83.0000000000,,,
2.0683593750,33,80.0000000000,,,
2.0703125000,33,53.0000000000,,,
2.0722656250,33,8.0000000000,,,
2.0742187500,33,-18.0000000000,,,
2.0761718750,33,-13.0000000000,,,
2.0781250000,33,10.0000000000,,,
2.0800781250,33,1.0000000000,,,
2.0820312500,33,-50.0000000000,,,
2.0839843750,33,-62.0000000000,,,
2.0859375000,33,-26.0000000000,,,
2.0878906250,33,-17.0000000000,,,
2.0898437500,33,-28.0000000000,,,
2.0917968750,33,-13.0000000000,,,
2.0937500000,33,-14.0000000000,,,
2.0957031250,33,-30.0000000000,,,
2.0976562500,33,-42.0000000000,,,
2.0996093750,33,-8.0000000000,,,
2.1015625000,33,33.0000000000,,,
2.1035156250,33,2.0000000000,,,
2.1054687500,33,-42.0000000000,,,
2.1074218750,33,-33.0000000000,,,
2.1093750000,33,4.0000000000,,,
2.1113281250,33,26.0000000000,,,
2.1132812500,33,23.0000000000,,,
2.1152343750,33,25.0000000000,,,
2.1171875000,33,39.0000000000,,,
2.1191406250,33,48.0000000000,,,
2.1210937500,33,56.0000000000,,,
2.1230468750,33,73.0000000000,,,
2.1250000000,34,92.0000000000,,,
2.1269531250,34,104.0000000000,,,
2.1289062500,34,105.0000000000,,,
2.1308593750,34,84.0000000000,,,
2.1328125000,34,68.0000000000,,,
2.1347656250,34,74.0000000000,,,
2.1367187500,34,89.0000000000,,,
2.1386718750,34,83.0000000000,,,
2.1406250000,34,81.0000000000,,,
2.1425781250,34,100.0000000000,,,
2.1445312500,34,96.0000000000,,,
2.1464843750,34,74.0000000000,,,
2.1484375000,34,90.0000000000,,,
2.1503906250,34,128.0000000000,,,
2.1523437500,34,136.0000000000,,,
2.1542968750,34,124.0000000000,,,
2.1562500000,34,117.0000000000,,,
2.1582031250,34,122.0000000000,,,
2.1601562500,34,113.0000000000,,,
2.1621093750,34,86.0000000000,,,
2.1640625000,34,64.0000000000,,,
2.1660156250,34,44.0000000000,,,
2.1679687500,34,36.0000000000,,,
2.1699218750,34,39.0000000000,,,
2.1718750000,34,23.0000000000,,,
2.1738281250,34,-20.0000000000,,,
2.1757812500,34,-38.0000000000,,,
2.1777343750,34,-21.0000000000,,,
2.1796875000,34,-8.0000000000,,,
2.1816406250,34,2.0000000000,,,
2.1835937500,34,24.0000000000,,,
2.1855468750,34,8.0000000000,,,
2.1875000000,35,-30.0000000000,,,
2.1894531250,35,-65.0000000000,,,
2.1914062500,35,-61.0000000000,,,
2.1933593750,35,-49.0000000000,,,
2.1953125000,35,-24.0000000000,,,
2.1972656250,35,-19.0000000000,,,
2.1992187500,35,-33.0000000000,,,
2.2011718750,35,-54.0000000000,,,
2.2031250000,35,-58.0000000000,,,
2.2050781250,35,-34.0000000000,,,
2.2070312500,35,6.0000000000,,,
2.2089843750,35,43.0000000000,,,
2.2109375000,35,21.0000000000,,,
2.2128906250,35,-24.0000000000,,,
2.2148437500,35,-33.0000000000,,,
2.2167968750,35,-13.0000000000,,,
2.2187500000,35,11.0000000000,,,
2.2207031250,35,32.0000000000,,,
2.2226562500,35,56.0000000000,,,
2.2246093750,35,73.0000000000,,,
2.2265625000,35,60.0000000000,,,
2.2285156250,35,57.0000000000,,,
2.2304687500,35,72.0000000000,,,
2.2324218750,35,64.0000000000,,,
2.2343750000,35,41.0000000000,,,
2.2363281250,35,64.0000000000,,,
2.2382812500,35,114.0000000000,,,
2.2402343750,35,82.0000000000,,,
2.2421875000,35,-5.0000000000,,,
2.2441406250,35,-42.0000000000,,,
2.2460937500,35,2.0000000000,,,
2.2480468750,35,68.0000000000,,,
2.2500000000,36,113.0000000000,,,
2.2519531250,36,115.0000000000,,,
2.2539062500,36,90.0000000000,,,
2.2558593750,36,80.0000000000,,,
2.2578125000,36,107.0000000000,,,
2.2597656250,36,119.0000000000,,,
2.2617187500,36,107.0000000000,,,
2.2636718750,36,73.0000000000,,,
2.2656250000,36,35.0000000000,,,
2.2675781250,36,37.0000000000,,,
2.2695312500,36,48.0000000000,,,
2.2714843750,36,35.0000000000,,,
2.2734375000,36,18.0000000000,,,
2.2753906250,36,-6.0000000000,,,
2.2773437500,36,-8.0000000000,,,
2.2792968750,36,60.0000000000,,,
2.2812500000,36,117.0000000000,,,
2.2832031250,36,92.0000000000,,,
2.2851562500,36,41.0000000000,,,
2.2871093750,36,24.0000000000,,,
2.2890625000,36,37.0000000000,,,
2.2910156250,36,65.0000000000,,,
2.2929687500,36,82.0000000000,,,
2.2949218750,36,67.0000000000,,,
2.2968750000,36,26.0000000000,,,
2.2988281250,36,11.0000000000,,,
2.3007812500,36,19.0000000000,,,
2.3027343750,36,13.0000000000,,,
2.3046875000,36,-33.0000000000,,,
2.3066406250,36,-91.0000000000,,,
2.3085937500,36,-106.0000000000,,,
2.3105468750,36,-85.0000000000,,,
2.3125000000,37,-61.0000000000,,,
2.3144531250,37,-50.0000000000,,,
2.3164062500,37,-43.0000000000,,,
2.3183593750,37,-34.0000000000,,,
2.3203125000,37,-6.0000000000,,,
2.3222656250,37,4.0000000000,,,
2.3242187500,37,-35.0000000000,,,
2.3261718750,37,-68.0000000000,,,
2.3281250000,37,-69.0000000000,,,
2.3300781250,37,-89.0000000000,,,
2.3320312500,37,-115.0000000000,,,
2.3339843750,37,-108.0000000000,,,
2.3359375000,37,-86.0000000000,,,
2.3378906250,37,-54.0000000000,,,
2.3398437500,37,-24.0000000000,,,
2.3417968750,37,3.0000000000,,,
2.3437500000,37,43.0000000000,,,
2.3457031250,37,34.0000000000,,,
2.3476562500,37,1.0000000000,,,
2.3496093750,37,-17.0000000000,,,
2.3515625000,37,-39.0000000000,,,
2.3535156250,37,-53.0000000000,,,
2.3554687500,37,-70.0000000000,,,
2.3574218750,37,-88.0000000000,,,
2.3593750000,37,-68.0000000000,,,
2.3613281250,37,3.0000000000,,,
2.3632812500,37,50.0000000000,,,
2.3652343750,37,26.0000000000,,,
2.3671875000,37,-20.0000000000,,,
2.3691406250,37,-54.0000000000,,,
2.3710937500,37,-29.0000000000,,,
2.3730468750,37,2.0000000000,,,
2.3750000000,38,11.0000000000,,,
2.3769531250,38,-1.0000000000,,,
2.3789062500,38,-23.0000000000,,,
2.3808593750,38,-10.0000000000,,,
2.3828125000,38,50.0000000000,,,
2.3847656250,38,83.0000000000,,,
2.3867187500,38,66.0000000000,,,
2.3886718750,38,44.0000000000,,,
2.3906250000,38,59.0000000000,,,
2.3925781250,38,86.0000000000,,,
2.3945312500,38,71.0000000000,,,
2.3964843750,38,69.0000000000,,,
2.3984375000,38,65.0000000000,,,
2.4003906250,38,-5.0000000000,,,
2.4023437500,38,-17.0000000000,,,
2.4042968750,38,59.0000000000,,,
2.4062500000,38,116.0000000000,,,
2.4082031250,38,108.0000000000,,,
2.4101562500,38,85.0000000000,,,
2.4121093750,38,80.0000000000,,,
2.4140625000,38,96.0000000000,,,
2.4160156250,38,123.0000000000,,,
2.4179687500,38,161.0000000000,,,
2.4199218750,38,177.0000000000,,,
2.4218750000,38,156.0000000000,,,
2.4238281250,38,118.0000000000,,,
2.4257812500,38,83.0000000000,,,
2.4277343750,38,71.0000000000,,,
2.4296875000,38,91.0000000000,,,
2.4316406250,38,100.0000000000,,,
2.4335937500,38,82.0000000000,,,
2.4355468750,38,61.0000000000,,,
2.4375000000,39,50.0000000000,,,
2.4394531250,39,50.0000000000,,,
2.4414062500,39,61.0000000000,,,
2.4433593750,39,34.0000000000,,,
2.4453125000,39,-30.0000000000,,,
2.4472656250,39,-41.0000000000,,,
2.4492187500,39,10.0000000000,,,
2.4511718750,39,50.0000000000,,,
2.4531250000,39,100.0000000000,,,
2.4550781250,39,137.0000000000,,,
2.4570312500,39,6.0000000000,33552,2.4570312500,0.0000000000
2.4589843750,39,1.0000000000,,,
2.4609375000,39,35.0000000000,,,
2.4628906250,39,48.0000000000,,,
2.4648437500,39,17.0000000000,,,
2.4667968750,39,-21.0000000000,,,
2.4687500000,39,-39.0000000000,,,
2.4707031250,39,-8.0000000000,,,
2.4726562500,39,38.0000000000,,,
2.4746093750,39,69.0000000000,,,
2.4765625000,39,88.0000000000,,,
2.4785156250,39,105.0000000000,,,
2.4804687500,39,113.0000000000,,,
2.4824218750,39,112.0000000000,,,
2.4843750000,39,108.0000000000,,,
2.4863281250,39,65.0000000000,,,
2.4882812500,39,26.0000000000,,,
2.4902343750,39,34.0000000000,,,
2.4921875000,39,24.0000000000,,,
2.4941406250,39,-7.0000000000,,,
2.4960937500,39,-19.0000000000,,,
2.4980468750,39,-6.0000000000,,,
2.5000000000,40,9.0000000000,,,
2.5019531250,40,7.0000000000,,,
2.5039062500,40,26.0000000000,,,
2.5058593750,40,106.0000000000,,,
2.5078125000,40,115.0000000000,,,
2.5097656250,40,28.0000000000,,,
2.5117187500,40,10.0000000000,,,
2.5136718750,40,75.0000000000,,,
2.5156250000,40,98.0000000000,,,
2.5175781250,40,81.0000000000,,,
2.5195312500,40,45.0000000000,,,
2.5214843750,40,-1.0000000000,,,
2.5234375000,40,-8.0000000000,,,
2.5253906250,40,12.0000000000,,,
2.5273437500,40,57.0000000000,,,
2.5292968750,40,104.0000000000,,,
2.5312500000,40,93.0000000000,,,
2.5332031250,40,50.0000000000,,,
2.5351562500,40,21.0000000000,,,
2.5371093750,40,23.0000000000,,,
2.5390625000,40,55.0000000000,,,
2.5410156250,40,100.0000000000,,,
2.5429687500,40,92.0000000000,,,
2.5449218750,40,59.0000000000,,,
2.5468750000,40,34.0000000000,,,
2.5488281250,40,27.0000000000,,,
2.5507812500,40,97.0000000000,,,
2.5527343750,40,112.0000000000,,,
2.5546875000,40,50.0000000000,,,
2.5566406250,40,17.0000000000,,,
2.5585937500,40,26.0000000000,,,
2.5605468750,40,76.0000000000,,,
2.5625000000,41,98.0000000000,,,
2.5644531250,41,65.0000000000,,,
2.5664062500,41,87.0000000000,,,
2.5683593750,41,103.0000000000,,,
2.5703125000,41,77.0000000000,,,
2.5722656250,41,58.0000000000,,,
2.5742187500,41,70.0000000000,,,
2.5761718750,41,114.0000000000,,,
2.5781250000,41,98.0000000000,,,
2.5800781250,41,24.0000000000,,,
2.5820312500,41,-4.0000000000,,,
2.5839843750,41,82.0000000000,,,
2.5859375000,41,130.0000000000,,,
2.5878906250,41,103.0000000000,,,
2.5898437500,41,136.0000000000,,,
2.5917968750,41,140.0000000000,,,
2.5937500000,41,97.0000000000,,,
2.5957031250,41,86.0000000000,,,
2.5976562500,41,71.0000000000,,,
2.5996093750,41,58.0000000000,,,
2.6015625000,41,56.0000000000,,,
2.6035156250,41,49.0000000000,,,
2.6054687500,41,76.0000000000,,,
2.6074218750,41,170.0000000000,,,
2.6093750000,41,233.0000000000,,,
2.6113281250,41,193.0000000000,,,
2.6132812500,41,133.0000000000,,,
2.6152343750,41,98.0000000000,,,
2.6171875000,41,67.0000000000,,,
2.6191406250,41,64.0000000000,,,
2.6210937500,41,87.0000000000,,,
2.6230468750,41,61.0000000000,,,
2.6250000000,42,12.0000000000,,,
2.6269531250,42,25.0000000000,,,
2.6289062500,42,119.0000000000,,,
2.6308593750,42,194.0000000000,,,
2.6328125000,42,170.0000000000,,,
2.6347656250,42,101.0000000000,,,
2.6367187500,42,65.0000000000,,,
2.6386718750,42,84.0000000000,,,
2.6406250000,42,102.0000000000,,,
2.6425781250,42,85.0000000000,,,
2.6445312500,42,58.0000000000,,,
2.6464843750,42,53.0000000000,,,
2.6484375000,42,77.0000000000,,,
2.6503906250,42,135.0000000000,,,
2.6523437500,42,150.0000000000,,,
2.6542968750,42,109.0000000000,,,
2.6562500000,42,120.0000000000,,,
2.6582031250,42,163.0000000000,,,
2.6601562500,42,132.0000000000,,,
2.6621093750,42,85.0000000000,,,
2.6640625000,42,98.0000000000,,,
2.6660156250,42,105.0000000000,,,
2.6679687500,42,97.0000000000,,,
2.6699218750,42,89.0000000000,,,
2.6718750000,42,125.0000000000,,,
2.6738281250,42,210.0000000000,,,
2.6757812500,42,261.0000000000,,,
2.6777343750,42,218.0000000000,,,
2.6796875000,42,179.0000000000,,,
2.6816406250,42,209.0000000000,,,
2.6835937500,42,304.0000000000,,,
2.6855468750,42,299.0000000000,,,
2.6875000000,43,193.0000000000,,,
2.6894531250,43,146.0000000000,,,
2.6914062500,43,184.0000000000,,,
2.6933593750,43,258.0000000000,,,
2.6953125000,43,269.0000000000,,,
2.6972656250,43,263.0000000000,,,
2.6992187500,43,324.0000000000,,,
2.7011718750,43,358.0000000000,,,
2.7031250000,43,293.0000000000,,,
2.7050781250,43,234.0000000000,,,
2.7070312500,43,230.0000000000,,,
2.7089843750,43,240.0000000000,,,
2.7109375000,43,268.0000000000,,,
2.7128906250,43,336.0000000000,,,
2.7148437500,43,378.0000000000,,,
2.7167968750,43,404.0000000000,,,
2.7187500000,43,381.0000000000,,,
2.7207031250,43,360.0000000000,,,
2.7226562500,43,435.0000000000,,,
2.7246093750,43,587.0000000000,,,
2.7265625000,43,562.0000000000,,,
2.7285156250,43,400.0000000000,,,
2.7304687500,43,371.0000000000,,,
2.7324218750,43,459.0000000000,,,
2.7343750000,43,491.0000000000,,,
2.7363281250,43,500.0000000000,,,
2.7382812500,43,513.0000000000,,,
2.7402343750,43,528.0000000000,,,
2.7421875000,43,544.0000000000,,,
2.7441406250,43,545.0000000000,,,
2.7460937500,43,541.0000000000,,,
2.7480468750,43,544.0000000000,,,
2.7500000000,44,565.0000000000,,,
2.7519531250,44,548.0000000000,,,
2.7539062500,44,471.0000000000,,,
2.7558593750,44,409.0000000000,,,
2.7578125000,44,454.0000000000,,,
2.7597656250,44,512.0000000000,,,
2.7617187500,44,422.0000000000,,,
2.7636718750,44,327.0000000000,,,
2.7656250000,44,348.0000000000,,,
2.7675781250,44,418.0000000000,,,
2.7695312500,44,471.0000000000,,,
2.7714843750,44,459.0000000000,,,
2.7734375000,44,370.0000000000,,,
2.7753906250,44,316.0000000000,,,
2.7773437500,44,363.0000000000,,,
2.7792968750,44,464.0000000000,,,
2.7812500000,44,516.0000000000,,,
2.7832031250,44,493.0000000000,,,
2.7851562500,44,439.0000000000,,,
2.7871093750,44,395.0000000000,,,
2.7890625000,44,380.0000000000,,,
2.7910156250,44,377.0000000000,,,
2.7929687500,44,356.0000000000,,,
2.7949218750,44,341.0000000000,,,
2.7968750000,44,373.0000000000,,,
2.7988281250,44,362.0000000000,,,
2.8007812500,44,337.0000000000,,,
2.8027343750,44,324.0000000000,,,
2.8046875000,44,320.0000000000,,,
2.8066406250,44,296.0000000000,,,
2.8085937500,44,278.0000000000,,,
2.8105468750,44,277.0000000000,,,
2.8125000000,45,308.0000000000,,,
2.8144531250,45,376.0000000000,,,
2.8164062500,45,338.0000000000,,,
2.8183593750,45,227.0000000000,,,
2.8203125000,45,212.0000000000,,,
2.8222656250,45,285.0000000000,,,
2.8242187500,45,305.0000000000,,,
2.8261718750,45,247.0000000000,,,
2.8281250000,45,194.0000000000,,,
2.8300781250,45,152.0000000000,,,
2.8320312500,45,137.0000000000,,,
2.8339843750,45,150.0000000000,,,
2.8359375000,45,194.0000000000,,,
2.8378906250,45,256.0000000000,,,
2.8398437500,45,289.0000000000,,,
2.8417968750,45,275.0000000000,,,
2.8437500000,45,229.0000000000,,,
2.8457031250,45,144.0000000000,,,
2.8476562500,45,124.0000000000,,,
2.8496093750,45,130.0000000000,,,
2.8515625000,45,75.0000000000,,,
2.8535156250,45,35.0000000000,,,
2.8554687500,45,49.0000000000,,,
2.8574218750,45,86.0000000000,,,
2.8593750000,45,83.0000000000,,,
2.8613281250,45,29.0000000000,,,
2.8632812500,45,-8.0000000000,,,
2.8652343750,45,8.0000000000,,,
2.8671875000,45,43.0000000000,,,
2.8691406250,45,18.0000000000,,,
2.8710937500,45,-1.0000000000,,,
2.8730468750,45,12.0000000000,,,
2.8750000000,46,-19.0000000000,,,
2.8769531250,46,-45.0000000000,,,
2.8789062500,46,-25.0000000000,,,
2.8808593750,46,0.0000000000,,,
2.8828125000,46,29.0000000000,,,
2.8847656250,46,18.0000000000,,,
2.8867187500,46,-11.0000000000,,,
2.8886718750,46,-4.0000000000,,,
2.8906250000,46,44.0000000000,,,
2.8925781250,46,89.0000000000,,,
2.8945312500,46,34.0000000000,,,
2.8964843750,46,-73.0000000000,,,
2.8984375000,46,-100.0000000000,,,
2.9003906250,46,-78.0000000000,,,
2.9023437500,46,-105.0000000000,,,
2.9042968750,46,-161.0000000000,,,
2.9062500000,46,-187.0000000000,,,
2.9082031250,46,-174.0000000000,,,
2.9101562500,46,-136.0000000000,,,
2.9121093750,46,-73.0000000000,,,
2.9140625000,46,-34.0000000000,,,
2.9160156250,46,-57.0000000000,,,
2.9179687500,46,-87.0000000000,,,
2.9199218750,46,-83.0000000000,,,
2.9218750000,46,-73.0000000000,,,
2.9238281250,46,-75.0000000000,,,
2.9257812500,46,-66.0000000000,,,
2.9277343750,46,-40.0000000000,,,
2.9296875000,46,-68.0000000000,,,
2.9316406250,46,-123.0000000000,,,
2.9335937500,46,-138.0000000000,,,
2.9355468750,46,-92.0000000000,,,
2.9375000000,47,-41.0000000000,,,
2.9394531250,47,-40.0000000000,,,
2.9414062500,47,-89.0000000000,,,
2.9433593750,47,-125.0000000000,,,
2.9453125000,47,-114.0000000000,,,
2.9472656250,47,-103.0000000000,,,
2.9492187500,47,-106.0000000000,,,
2.9511718750,47,-85.0000000000,,,
2.9531250000,47,-73.0000000000,,,
2.9550781250,47,-99.0000000000,,,
2.9570312500,47,-124.0000000000,,,
2.9589843750,47,-119.0000000000,,,
2.9609375000,47,-129.0000000000,,,
2.9628906250,47,-148.0000000000,,,
2.9648437500,47,-150.0000000000,,,
2.9667968750,47,-137.0000000000,,,
2.9687500000,47,-133.0000000000,,,
2.9707031250,47,-147.0000000000,,,
2.9726562500,47,-138.0000000000,,,
2.9746093750,47,-113.0000000000,,,
2.9765625000,47,-88.0000000000,,,
2.9785156250,47,-110.0000000000,,,
2.9804687500,47,-142.0000000000,,,
2.9824218750,47,-110.0000000000,,,
2.9843750000,47,-59.0000000000,,,
2.9863281250,47,-74.0000000000,,,
2.9882812500,47,-146.0000000000,,,
2.9902343750,47,-156.0000000000,,,
2.9921875000,47,-125.0000000000,,,
2.9941406250,47,-152.0000000000,,,
2.9960937500,47,-174.0000000000,,,
2.9980468750,47,-170.0000000000,,,
3.0000000000,48,-130.0000000000,,,
3.0019531250,48,-97.0000000000,,,
3.0039062500,48,-84.0000000000,,,
3.0058593750,48,-103.0000000000,,,
3.0078125000,48,-146.0000000000,,,
3.0097656250,48,-172.0000000000,,,
3.0117187500,48,-165.0000000000,,,
3.0136718750,48,-138.0000000000,,,
3.0156250000,48,-120.0000000000,,,
3.0175781250,48,-115.0000000000,,,
3.0195312500,48,-113.0000000000,,,
3.0214843750,48,-114.0000000000,,,
3.0234375000,48,-150.0000000000,,,
3.0253906250,48,-161.0000000000,,,
3.0273437500,48,-129.0000000000,,,
3.0292968750,48,-90.0000000000,,,
3.0312500000,48,-94.0000000000,,,
3.0332031250,48,-138.0000000000,,,
3.0351562500,48,-153.0000000000,,,
3.0371093750,48,-106.0000000000,,,
3.0390625000,48,-60.0000000000,,,
3.0410156250,48,-45.0000000000,,,
3.0429687500,48,-100.0000000000,,,
3.0449218750,48,-169.0000000000,,,
3.0468750000,48,-186.0000000000,,,
3.0488281250,48,-151.0000000000,,,
3.0507812500,48,-110.0000000000,,,
3.0527343750,48,-109.0000000000,,,
3.0546875000,48,-81.0000000000,,,
3.0566406250,48,8.0000000000,,,
3.0585937500,48,-5.0000000000,,,
3.0605468750,48,-61.0000000000,,,
3.0625000000,49,-40.0000000000,,,
3.0644531250,49,-28.0000000000,,,
3.0664062500,49,-51.0000000000,,,
3.0683593750,49,-44.0000000000,,,
3.0703125000,49,-67.0000000000,,,
3.0722656250,49,-135.0000000000,,,
3.0742187500,49,-164.0000000000,,,
3.0761718750,49,-124.0000000000,,,
3.0781250000,49,-44.0000000000,,,
3.0800781250,49,56.0000000000,,,
3.0820312500,49,87.0000000000,,,
3.0839843750,49,10.0000000000,,,
3.0859375000,49,-27.0000000000,,,
3.0878906250,49,-39.0000000000,,,
3.0898437500,49,-81.0000000000,,,
3.0917968750,49,-93.0000000000,,,
3.0937500000,49,-82.0000000000,,,
3.0957031250,49,-83.0000000000,,,
3.0976562500,49,-65.0000000000,,,
3.0996093750,49,-42.0000000000,,,
3.1015625000,49,-14.0000000000,,,
3.1035156250,49,-25.0000000000,,,
3.1054687500,49,-7.0000000000,,,
3.1074218750,49,69.0000000000,,,
3.1093750000,49,35.0000000000,,,
3.1113281250,49,-30.0000000000,,,
3.1132812500,49,-5.0000000000,,,
3.1152343750,49,34.0000000000,,,
3.1171875000,49,9.0000000000,,,
3.1191406250,49,-13.0000000000,,,
3.1210937500,49,-14.0000000000,,,
3.1230468750,49,5.0000000000,,,
3.1250000000,50,55.0000000000,,,
3.1269531250,50,92.0000000000,,,
3.1289062500,50,69.0000000000,,,
3.1308593750,50,-11.0000000000,,,
3.1328125000,50,-43.0000000000,,,
3.1347656250,50,23.0000000000,,,
3.1367187500,50,106.0000000000,,,
3.1386718750,50,121.0000000000,,,
3.1406250000,50,113.0000000000,,,
3.1425781250,50,107.0000000000,,,
3.1445312500,50,89.0000000000,,,
3.1464843750,50,38.0000000000,,,
3.1484375000,50,-25.0000000000,,,
3.1503906250,50,-27.0000000000,,,
3.1523437500,50,5.0000000000,,,
3.1542968750,50,37.0000000000,,,
3.1562500000,50,58.0000000000,,,
3.1582031250,50,99.0000000000,,,
3.1601562500,50,89.0000000000,,,
3.1621093750,50,42.0000000000,,,
3.1640625000,50,34.0000000000,,,
3.1660156250,50,91.0000000000,,,
3.1679687500,50,59.0000000000,,,
3.1699218750,50,-33.0000000000,,,
3.1718750000,50,-53.0000000000,,,
3.1738281250,50,-17.0000000000,,,
3.1757812500,50,24.0000000000,,,
3.1777343750,50,51.0000000000,,,
3.1796875000,50,44.0000000000,,,
3.1816406250,50,24.0000000000,,,
3.1835937500,50,7.0000000000,,,
3.1855468750,50,-13.0000000000,,,
3.1875000000,51,-35.0000000000,,,
3.1894531250,51,-25.0000000000,,,
3.1914062500,51,27.0000000000,,,
3.1933593750,51,39.0000000000,,,
3.1953125000,51,-2.0000000000,,,
3.1972656250,51,-22.0000000000,,,
3.1992187500,51,-6.0000000000,,,
3.2011718750,51,-54.0000000000,,,
3.2031250000,51,-113.0000000000,,,
3.2050781250,51,-122.0000000000,,,
3.2070312500,51,-69.0000000000,,,
3.2089843750,51,-37.0000000000,,,
3.2109375000,51,-83.0000000000,,,
3.2128906250,51,-136.0000000000,,,
3.2148437500,51,-99.0000000000,,,
3.2167968750,51,-7.0000000000,,,
3.2187500000,51,1.0000000000,,,
3.2207031250,51,-67.0000000000,,,
3.2226562500,51,-73.0000000000,,,
3.2246093750,51,-56.0000000000,,,
3.2265625000,51,-104.0000000000,,,
3.2285156250,51,-154.0000000000,,,
3.2304687500,51,-146.0000000000,,,
3.2324218750,51,-57.0000000000,,,
3.2343750000,51,58.0000000000,,,
3.2363281250,51,115.0000000000,,,
3.2382812500,51,82.0000000000,,,
3.2402343750,51,1.0000000000,,,
3.2421875000,51,-94.0000000000,,,
3.2441406250,51,-118.0000000000,,,
3.2460937500,51,-87.0000000000,,,
3.2480468750,51,-105.0000000000,,,
3.2500000000,52,-137.0000000000,,,
3.2519531250,52,-119.0000000000,,,
3.2539062500,52,-28.0000000000,,,
3.2558593750,52,67.0000000000,,,
3.2578125000,52,57.0000000000,,,
3.2597656250,52,-11.0000000000,,,
3.2617187500,52,-55.0000000000,,,
3.2636718750,52,-25.0000000000,,,
3.2656250000,52,20.0000000000,,,
3.2675781250,52,51.0000000000,,,
3.2695312500,52,16.0000000000,,,
3.2714843750,52,-42.0000000000,,,
3.2734375000,52,-50.0000000000,,,
3.2753906250,52,-17.0000000000,,,
3.2773437500,52,17.0000000000,,,
3.2792968750,52,34.0000000000,,,
3.2812500000,52,20.0000000000,,,
3.2832031250,52,24.0000000000,,,
3.2851562500,52,53.0000000000,,,
3.2871093750,52,39.0000000000,,,
3.2890625000,52,6.0000000000,,,
3.2910156250,52,-6.0000000000,,,
3.2929687500,52,11.0000000000,,,
3.2949218750,52,19.0000000000,,,
3.2968750000,52,67.0000000000,,,
3.2988281250,52,107.0000000000,,,
3.3007812500,52,57.0000000000,,,
3.3027343750,52,-55.0000000000,,,
3.3046875000,52,-118.0000000000,,,
3.3066406250,52,-73.0000000000,,,
3.3085937500,52,25.0000000000,,,
3.3105468750,52,40.0000000000,,,
3.3125000000,53,32.0000000000,,,
3.3144531250,53,32.0000000000,,,
3.3164062500,53,40.0000000000,,,
3.3183593750,53,72.0000000000,,,
3.3203125000,53,37.0000000000,,,
3.3222656250,53,-19.0000000000,,,
3.3242187500,53,-6.0000000000,,,
3.3261718750,53,19.0000000000,,,
3.3281250000,53,18.0000000000,,,
3.3300781250,53,-27.0000000000,,,
3.3320312500,53,-88.0000000000,,,
3.3339843750,53,-78.0000000000,,,
3.3359375000,53,38.0000000000,,,
3.3378906250,53,80.0000000000,,,
3.3398437500,53,-8.0000000000,,,
3.3417968750,53,-73.0000000000,,,
3.3437500000,53,-74.0000000000,,,
3.3457031250,53,-62.0000000000,,,
3.3476562500,53,-75.0000000000,,,
3.3496093750,53,-99.0000000000,,,
3.3515625000,53,-150.0000000000,,,
3.3535156250,53,-148.0000000000,,,
3.3554687500,53,-56.0000000000,,,
3.3574218750,53,-26.0000000000,,,
3.3593750000,53,-42.0000000000,,,
3.3613281250,53,-20.0000000000,,,
3.3632812500,53,41.0000000000,,,
3.3652343750,53,90.0000000000,,,
3.3671875000,53,35.0000000000,,,
3.3691406250,53,-11.0000000000,,,
3.3710937500,53,43.0000000000,,,
3.3730468750,53,118.0000000000,,,
3.3750000000,54,101.0000000000,,,
3.3769531250,54,-5.0000000000,,,
3.3789062500,54,-66.0000000000,,,
3.3808593750,54,-54.0000000000,,,
3.3828125000,54,-8.0000000000,,,
3.3847656250,54,19.0000000000,,,
3.3867187500,54,3.0000000000,,,
3.3886718750,54,-52.0000000000,,,
3.3906250000,54,-66.0000000000,,,
3.3925781250,54,19.0000000000,,,
3.3945312500,54,119.0000000000,,,
3.3964843750,54,155.0000000000,,,
3.3984375000,54,187.0000000000,,,
3.4003906250,54,156.0000000000,,,
3.4023437500,54,59.0000000000,,,
3.4042968750,54,29.0000000000,,,
3.4062500000,54,76.0000000000,,,
3.4082031250,54,118.0000000000,,,
3.4101562500,54,82.0000000000,,,
3.4121093750,54,11.0000000000,,,
3.4140625000,54,-33.0000000000,,,
3.4160156250,54,-50.0000000000,,,
3.4179687500,54,-39.0000000000,,,
3.4199218750,54,4.0000000000,,,
3.4218750000,54,74.0000000000,,,
3.4238281250,54,137.0000000000,,,
3.4257812500,54,137.0000000000,,,
3.4277343750,54,122.0000000000,,,
3.4296875000,54,76.0000000000,,,
3.4316406250,54,2.0000000000,,,
3.4335937500,54,-18.0000000000,,,
3.4355468750,54,-2.0000000000,,,
3.4375000000,55,56.0000000000,,,
3.4394531250,55,106.0000000000,,,
3.4414062500,55,6.0000000000,,,
3.4433593750,55,-97.0000000000,,,
3.4453125000,55,-67.0000000000,,,
3.4472656250,55,38.0000000000,,,
3.4492187500,55,124.0000000000,,,
3.4511718750,55,163.0000000000,,,
3.4531250000,55,137.0000000000,,,
3.4550781250,55,64.0000000000,,,
3.4570312500,55,22.0000000000,,,
3.4589843750,55,27.0000000000,,,
3.4609375000,55,34.0000000000,,,
3.4628906250,55,75.0000000000,,,
3.4648437500,55,85.0000000000,,,
3.4667968750,55,48.0000000000,,,
3.4687500000,55,20.0000000000,,,
3.4707031250,55,-13.0000000000,,,
3.4726562500,55,-8.0000000000,,,
3.4746093750,55,11.0000000000,,,
3.4765625000,55,74.0000000000,,,
3.4785156250,55,96.0000000000,,,
3.4804687500,55,80.0000000000,,,
3.4824218750,55,118.0000000000,,,
3.4843750000,55,155.0000000000,,,
3.4863281250,55,101.0000000000,,,
3.4882812500,55,29.0000000000,,,
3.4902343750,55,57.0000000000,,,
3.4921875000,55,130.0000000000,,,
3.4941406250,55,129.0000000000,,,
3.4960937500,55,59.0000000000,,,
3.4980468750,55,-11.0000000000,,,
3.5000000000,56,-19.0000000000,,,
3.5019531250,56,49.0000000000,,,
3.5039062500,56,98.0000000000,,,
3.5058593750,56,88.0000000000,,,
3.5078125000,56,67.0000000000,,,
3.5097656250,56,49.0000000000,,,
3.5117187500,56,67.0000000000,,,
3.5136718750,56,9.0000000000,,,
3.5156250000,56,-43.0000000000,,,
3.5175781250,56,-5.0000000000,,,
3.5195312500,56,146.0000000000,,,
3.5214843750,56,194.0000000000,,,
3.5234375000,56,87.0000000000,,,
3.5253906250,56,-25.0000000000,,,
3.5273437500,56,-85.0000000000,,,
3.5292968750,56,-75.0000000000,,,
3.5312500000,56,-21.0000000000,,,
3.5332031250,56,21.0000000000,,,
3.5351562500,56,56.0000000000,,,
3.5371093750,56,18.0000000000,,,
3.5390625000,56,-21.0000000000,,,
3.5410156250,56,35.0000000000,,,
3.5429687500,56,108.0000000000,,,
3.5449218750,56,104.0000000000,,,
3.5468750000,56,38.0000000000,,,
3.5488281250,56,28.0000000000,,,
3.5507812500,56,76.0000000000,,,
3.5527343750,56,114.0000000000,,,
3.5546875000,56,133.0000000000,,,
3.5566406250,56,105.0000000000,,,
3.5585937500,56,97.0000000000,,,
3.5605468750,56,170.0000000000,,,
3.5625000000,57,139.0000000000,,,
3.5644531250,57,57.0000000000,,,
3.5664062500,57,40.0000000000,,,
3.5683593750,57,26.0000000000,,,
3.5703125000,57,28.0000000000,,,
3.5722656250,57,49.0000000000,,,
3.5742187500,57,19.0000000000,,,
3.5761718750,57,10.0000000000,,,
3.5781250000,57,91.0000000000,,,
3.5800781250,57,195.0000000000,,,
3.5820312500,57,213.0000000000,,,
3.5839843750,57,82.0000000000,,,
3.5859375000,57,-100.0000000000,,,
3.5878906250,57,-149.0000000000,,,
3.5898437500,57,-55.0000000000,,,
3.5917968750,57,13.0000000000,,,
3.5937500000,57,34.0000000000,,,
3.5957031250,57,-4.0000000000,,,
3.5976562500,57,-74.0000000000,,,
3.5996093750,57,-91.0000000000,,,
3.6015625000,57,-66.0000000000,,,
3.6035156250,57,-40.0000000000,,,
3.6054687500,57,-41.0000000000,,,
3.6074218750,57,-38.0000000000,,,
3.6093750000,57,-59.0000000000,,,
3.6113281250,57,-114.0000000000,,,
3.6132812500,57,-132.0000000000,,,
3.6152343750,57,-89.0000000000,,,
3.6171875000,57,-7.0000000000,,,
3.6191406250,57,-22.0000000000,,,
3.6210937500,57,-86.0000000000,,,
3.6230468750,57,-107.0000000000,,,
3.6250000000,58,-118.0000000000,,,
3.6269531250,58,-90.0000000000,,,
3.6289062500,58,-44.0000000000,,,
3.6308593750,58,-20.0000000000,,,
3.6328125000,58,6.0000000000,,,
3.6347656250,58,3.0000000000,,,
3.6367187500,58,-57.0000000000,,,
3.6386718750,58,-86.0000000000,,,
3.6406250000,58,-75.0000000000,,,
3.6425781250,58,-68.0000000000,,,
3.6445312500,58,-69.0000000000,,,
3.6464843750,58,-98.0000000000,,,
3.6484375000,58,-107.0000000000,,,
3.6503906250,58,-88.0000000000,,,
3.6523437500,58,-78.0000000000,,,
3.6542968750,58,-20.0000000000,,,
3.6562500000,58,3.0000000000,,,
3.6582031250,58,21.0000000000,,,
3.6601562500,58,120.0000000000,,,
3.6621093750,58,89.0000000000,,,
3.6640625000,58,-75.0000000000,,,
3.6660156250,58,-163.0000000000,,,
3.6679687500,58,-106.0000000000,,,
3.6699218750,58,-40.0000000000,,,
3.6718750000,58,-19.0000000000,,,
3.6738281250,58,-28.0000000000,,,
3.6757812500,58,-20.0000000000,,,
3.6777343750,58,-8.0000000000,,,
3.6796875000,58,-17.0000000000,,,
3.6816406250,58,-20.0000000000,,,
3.6835937500,58,-17.0000000000,,,
3.6855468750,58,20.0000000000,,,
3.6875000000,59,76.0000000000,,,
3.6894531250,59,97.0000000000,,,
3.6914062500,59,19.0000000000,,,
3.6933593750,59,-72.0000000000,,,
3.6953125000,59,-57.0000000000,,,
3.6972656250,59,42.0000000000,,,
3.6992187500,59,81.0000000000,,,
3.7011718750,59,61.0000000000,,,
3.7031250000,59,48.0000000000,,,
3.7050781250,59,37.0000000000,,,
3.7070312500,59,69.0000000000,,,
3.7089843750,59,103.0000000000,,,
3.7109375000,59,119.0000000000,,,
3.7128906250,59,99.0000000000,,,
3.7148437500,59,42.0000000000,,,
3.7167968750,59,34.0000000000,,,
3.7187500000,59,75.0000000000,,,
3.7207031250,59,89.0000000000,,,
3.7226562500,59,54.0000000000,,,
3.7246093750,59,29.0000000000,,,
3.7265625000,59,35.0000000000,,,
3.7285156250,59,82.0000000000,,,
3.7304687500,59,89.0000000000,,,
3.7324218750,59,72.0000000000,,,
3.7343750000,59,67.0000000000,,,
3.7363281250,59,64.0000000000,,,
3.7382812500,59,-7.0000000000,,,
3.7402343750,59,-83.0000000000,,,
3.7421875000,59,-82.0000000000,,,
3.7441406250,59,-20.0000000000,,,
3.7460937500,59,75.0000000000,,,
3.7480468750,59,106.0000000000,,,
3.7500000000,60,115.0000000000,,,
3.7519531250,60,193.0000000000,,,
3.7539062500,60,179.0000000000,,,
3.7558593750,60,54.0000000000,,,
3.7578125000,60,11.0000000000,,,
3.7597656250,60,54.0000000000,,,
3.7617187500,60,70.0000000000,,,
3.7636718750,60,149.0000000000,,,
3.7656250000,60,185.0000000000,,,
3.7675781250,60,9.0000000000,,,
3.7695312500,60,-148.0000000000,,,
3.7714843750,60,-132.0000000000,,,
3.7734375000,60,-22.0000000000,,,
3.7753906250,60,57.0000000000,,,
3.7773437500,60,90.0000000000,,,
3.7792968750,60,90.0000000000,,,
3.7812500000,60,102.0000000000,,,
3.7832031250,60,56.0000000000,,,
3.7851562500,60,-8.0000000000,,,
3.7871093750,60,19.0000000000,,,
3.7890625000,60,48.0000000000,,,
3.7910156250,60,41.0000000000,,,
3.7929687500,60,9.0000000000,,,
3.7949218750,60,-45.0000000000,,,
3.7968750000,60,-58.0000000000,,,
3.7988281250,60,-34.0000000000,,,
3.8007812500,60,-3.0000000000,,,
3.8027343750,60,42.0000000000,,,
3.8046875000,60,75.0000000000,,,
3.8066406250,60,44.0000000000,,,
3.8085937500,60,34.0000000000,,,
3.8105468750,60,34.0000000000,,,
3.8125000000,61,22.0000000000,,,
3.8144531250,61,41.0000000000,,,
3.8164062500,61,22.0000000000,,,
3.8183593750,61,-11.0000000000,,,
3.8203125000,61,-19.0000000000,,,
3.8222656250,61,17.0000000000,,,
3.8242187500,61,85.0000000000,,,
3.8261718750,61,116.0000000000,,,
3.8281250000,61,66.0000000000,,,
3.8300781250,61,19.0000000000,,,
3.8320312500,61,49.0000000000,,,
3.8339843750,61,141.0000000000,,,
3.8359375000,61,152.0000000000,,,
3.8378906250,61,88.0000000000,,,
3.8398437500,61,25.0000000000,,,
3.8417968750,61,-40.0000000000,,,
3.8437500000,61,-66.0000000000,,,
3.8457031250,61,-7.0000000000,,,
3.8476562500,61,54.0000000000,,,
3.8496093750,61,66.0000000000,,,
3.8515625000,61,38.0000000000,,,
3.8535156250,61,-5.0000000000,,,
3.8554687500,61,-20.0000000000,,,
3.8574218750,61,3.0000000000,,,
3.8593750000,61,69.0000000000,,,
3.8613281250,61,96.0000000000,,,
3.8632812500,61,49.0000000000,,,
3.8652343750,61,-44.0000000000,,,
3.8671875000,61,-77.0000000000,,,
3.8691406250,61,-8.0000000000,,,
3.8710937500,61,60.0000000000,,,
3.8730468750,61,98.0000000000,,,
3.8750000000,62,129.0000000000,,,
3.8769531250,62,112.0000000000,,,
3.8789062500,62,41.0000000000,,,
3.8808593750,62,38.0000000000,,,
3.8828125000,62,134.0000000000,,,
3.8847656250,62,185.0000000000,,,
3.8867187500,62,170.0000000000,,,
3.8886718750,62,100.0000000000,,,
3.8906250000,62,-5.0000000000,,,
3.8925781250,62,-67.0000000000,,,
3.8945312500,62,-39.0000000000,,,
3.8964843750,62,6.0000000000,,,
3.8984375000,62,44.0000000000,,,
3.9003906250,62,75.0000000000,,,
3.9023437500,62,77.0000000000,,,
3.9042968750,62,90.0000000000,,,
3.9062500000,62,140.0000000000,,,
3.9082031250,62,147.0000000000,,,
3.9101562500,62,104.0000000000,,,
3.9121093750,62,89.0000000000,,,
3.9140625000,62,80.0000000000,,,
3.9160156250,62,35.0000000000,,,
3.9179687500,62,-6.0000000000,,,
3.9199218750,62,-11.0000000000,,,
3.9218750000,62,27.0000000000,,,
3.9238281250,62,69.0000000000,,,
3.9257812500,62,86.0000000000,,,
3.9277343750,62,83.0000000000,,,
3.9296875000,62,100.0000000000,,,
3.9316406250,62,77.0000000000,,,
3.9335937500,62,48.0000000000,,,
3.9355468750,62,8.0000000000,,,
3.9375000000,63,-10.0000000000,,,
3.9394531250,63,29.0000000000,,,
3.9414062500,63,130.0000000000,,,
3.9433593750,63,173.0000000000,,,
3.9453125000,63,123.0000000000,,,
3.9472656250,63,91.0000000000,,,
3.9492187500,63,148.0000000000,,,
3.9511718750,63,184.0000000000,,,
3.9531250000,63,145.0000000000,,,
3.9550781250,63,137.0000000000,33553,3.9550781250,0.0019531250
3.9570312500,63,137.0000000000,33554,3.9570312500,0.0000000000
3.9589843750,63,137.0000000000,,,
3.9609375000,63,96.0000000000,,,
3.9628906250,63,42.0000000000,,,
3.9648437500,63,7.0000000000,,,
3.9667968750,63,-30.0000000000,,,
3.9687500000,63,-17.0000000000,,,
3.9707031250,63,65.0000000000,,,
3.9726562500,63,59.0000000000,,,
3.9746093750,63,22.0000000000,,,
3.9765625000,63,7.0000000000,,,
3.9785156250,63,39.0000000000,,,
3.9804687500,63,65.0000000000,,,
3.9824218750,63,-34.0000000000,,,
3.9843750000,63,-125.0000000000,,,
3.9863281250,63,-139.0000000000,,,
3.9882812500,63,-93.0000000000,,,
3.9902343750,63,-43.0000000000,,,
3.9921875000,63,-24.0000000000,,,
3.9941406250,63,-19.0000000000,,,
3.9960937500,63,-29.0000000000,,,
3.9980468750,63,-60.0000000000,,,
4.0000000000,64,-59.0000000000,,,
4.0019531250,64,-43.0000000000,,,
4.0039062500,64,-26.0000000000,,,
4.0058593750,64,18.0000000000,,,
4.0078125000,64,113.0000000000,,,
4.0097656250,64,33.0000000000,,,
4.0117187500,64,-98.0000000000,,,
4.0136718750,64,-104.0000000000,,,
4.0156250000,64,26.0000000000,,,
4.0175781250,64,172.0000000000,,,
4.0195312500,64,137.0000000000,,,
4.0214843750,64,34.0000000000,,,
4.0234375000,64,-21.0000000000,,,
4.0253906250,64,-49.0000000000,,,
4.0273437500,64,-33.0000000000,,,
4.0292968750,64,26.0000000000,,,
4.0312500000,64,51.0000000000,,,
4.0332031250,64,54.0000000000,,,
4.0351562500,64,85.0000000000,,,
4.0371093750,64,107.0000000000,,,
4.0390625000,64,38.0000000000,,,
4.0410156250,64,-27.0000000000,,,
4.0429687500,64,-11.0000000000,,,
4.0449218750,64,1.0000000000,,,
4.0468750000,64,13.0000000000,,,
4.0488281250,64,10.0000000000,,,
4.0507812500,64,-37.0000000000,,,
4.0527343750,64,-54.0000000000,,,
4.0546875000,64,-44.0000000000,,,
4.0566406250,64,3.0000000000,,,
4.0585937500,64,6.0000000000,,,
4.0605468750,64,-21.0000000000,,,
4.0625000000,65,-22.0000000000,,,
4.0644531250,65,-57.0000000000,,,
4.0664062500,65,-58.0000000000,,,
4.0683593750,65,32.0000000000,,,
4.0703125000,65,81.0000000000,,,
4.0722656250,65,16.0000000000,,,
4.0742187500,65,-55.0000000000,,,
4.0761718750,65,-59.0000000000,,,
4.0781250000,65,-42.0000000000,,,
4.0800781250,65,-18.0000000000,,,
4.0820312500,65,2.0000000000,,,
4.0839843750,65,27.0000000000,,,
4.0859375000,65,13.0000000000,,,
4.0878906250,65,-40.0000000000,,,
4.0898437500,65,-44.0000000000,,,
4.0917968750,65,-11.0000000000,,,
4.0937500000,65,73.0000000000,,,
4.0957031250,65,82.0000000000,,,
4.0976562500,65,-45.0000000000,,,
4.0996093750,65,-137.0000000000,,,
4.1015625000,65,-101.0000000000,,,
4.1035156250,65,-26.0000000000,,,
4.1054687500,65,-4.0000000000,,,
4.1074218750,65,7.0000000000,,,
4.1093750000,65,40.0000000000,,,
4.1113281250,65,70.0000000000,,,
4.1132812500,65,134.0000000000,,,
4.1152343750,65,118.0000000000,,,
4.1171875000,65,25.0000000000,,,
4.1191406250,65,-18.0000000000,,,
4.1210937500,65,-45.0000000000,,,
4.1230468750,65,-86.0000000000,,,
4.1250000000,66,-99.0000000000,,,
4.1269531250,66,-50.0000000000,,,
4.1289062500,66,32.0000000000,,,
4.1308593750,66,99.0000000000,,,
4.1328125000,66,141.0000000000,,,
4.1347656250,66,151.0000000000,,,
4.1367187500,66,75.0000000000,,,
4.1386718750,66,-10.0000000000,,,
4.1406250000,66,-20.0000000000,,,
4.1425781250,66,7.0000000000,,,
4.1445312500,66,-3.0000000000,,,
4.1464843750,66,-43.0000000000,,,
4.1484375000,66,-68.0000000000,,,
4.1503906250,66,-2.0000000000,,,
4.1523437500,66,73.0000000000,,,
4.1542968750,66,57.0000000000,,,
4.1562500000,66,39.0000000000,,,
4.1582031250,66,73.0000000000,,,
4.1601562500,66,59.0000000000,,,
4.1621093750,66,-41.0000000000,,,
4.1640625000,66,-74.0000000000,,,
4.1660156250,66,-23.0000000000,,,
4.1679687500,66,16.0000000000,,,
4.1699218750,66,-12.0000000000,,,
4.1718750000,66,-86.0000000000,,,
4.1738281250,66,-92.0000000000,,,
4.1757812500,66,-50.0000000000,,,
4.1777343750,66,5.0000000000,,,
4.1796875000,66,40.0000000000,,,
4.1816406250,66,45.0000000000,,,
4.1835937500,66,93.0000000000,,,
4.1855468750,66,75.0000000000,,,
4.1875000000,67,36.0000000000,,,
4.1894531250,67,43.0000000000,,,
4.1914062500,67,21.0000000000,,,
4.1933593750,67,-9.0000000000,,,
4.1953125000,67,-17.0000000000,,,
4.1972656250,67,-34.0000000000,,,
4.1992187500,67,-71.0000000000,,,
4.2011718750,67,-33.0000000000,,,
4.2031250000,67,70.0000000000,,,
4.2050781250,67,64.0000000000,,,
4.2070312500,67,36.0000000000,,,
4.2089843750,67,37.0000000000,,,
4.2109375000,67,5.0000000000,,,
4.2128906250,67,-52.0000000000,,,
4.2148437500,67,-76.0000000000,,,
4.2167968750,67,-78.0000000000,,,
4.2187500000,67,-10.0000000000,,,
4.2207031250,67,19.0000000000,,,
4.2226562500,67,-38.0000000000,,,
4.2246093750,67,-77.0000000000,,,
4.2265625000,67,-60.0000000000,,,
4.2285156250,67,-3.0000000000,,,
4.2304687500,67,122.0000000000,,,
4.2324218750,67,234.0000000000,,,
4.2343750000,67,33.0000000000,,,
4.2363281250,67,-226.0000000000,,,
4.2382812500,67,-235.0000000000,,,
4.2402343750,67,-93.0000000000,,,
4.2421875000,67,16.0000000000,,,
4.2441406250,67,52.0000000000,,,
4.2460937500,67,21.0000000000,,,
4.2480468750,67,-92.0000000000,,,
4.2500000000,68,-164.0000000000,,,
4.2519531250,68,-116.0000000000,,,
4.2539062500,68,1.0000000000,,,
4.2558593750,68,27.0000000000,,,
4.2578125000,68,-35.0000000000,,,
4.2597656250,68,-53.0000000000,,,
4.2617187500,68,22.0000000000,,,
4.2636718750,68,41.0000000000,,,
4.2656250000,68,70.0000000000,,,
4.2675781250,68,70.0000000000,,,
4.2695312500,68,38.0000000000,,,
4.2714843750,68,18.0000000000,,,
4.2734375000,68,-4.0000000000,,,
4.2753906250,68,26.0000000000,,,
4.2773437500,68,140.0000000000,,,
4.2792968750,68,122.0000000000,,,
4.2812500000,68,-13.0000000000,,,
4.2832031250,68,-52.0000000000,,,
4.2851562500,68,-22.0000000000,,,
4.2871093750,68,39.0000000000,,,
4.2890625000,68,119.0000000000,,,
4.2910156250,68,130.0000000000,,,
4.2929687500,68,137.0000000000,,,
4.2949218750,68,154.0000000000,,,
4.2968750000,68,108.0000000000,,,
4.2988281250,68,2.0000000000,,,
4.3007812500,68,-25.0000000000,,,
4.3027343750,68,35.0000000000,,,
4.3046875000,68,103.0000000000,,,
4.3066406250,68,147.0000000000,,,
4.3085937500,68,173.0000000000,,,
4.3105468750,68,153.0000000000,,,
4.3125000000,69,139.0000000000,,,
4.3144531250,69,114.0000000000,,,
4.3164062500,69,144.0000000000,,,
4.3183593750,69,176.0000000000,,,
4.3203125000,69,179.0000000000,,,
4.3222656250,69,140.0000000000,,,
4.3242187500,69,87.0000000000,,,
4.3261718750,69,125.0000000000,,,
4.3281250000,69,150.0000000000,,,
4.3300781250,69,138.0000000000,,,
4.3320312500,69,213.0000000000,,,
4.3339843750,69,330.0000000000,,,
4.3359375000,69,369.0000000000,,,
4.3378906250,69,357.0000000000,,,
4.3398437500,69,354.0000000000,,,
4.3417968750,69,309.0000000000,,,
4.3437500000,69,268.0000000000,,,
4.3457031250,69,229.0000000000,,,
4.3476562500,69,177.0000000000,,,
4.3496093750,69,148.0000000000,,,
4.3515625000,69,149.0000000000,,,
4.3535156250,69,156.0000000000,,,
4.3554687500,69,88.0000000000,,,
4.3574218750,69,4.0000000000,,,
4.3593750000,69,28.0000000000,,,
4.3613281250,69,98.0000000000,,,
4.3632812500,69,89.0000000000,,,
4.3652343750,69,92.0000000000,,,
4.3671875000,69,150.0000000000,,,
4.3691406250,69,105.0000000000,,,
4.3710937500,69,29.0000000000,,,
4.3730468750,69,25.0000000000,,,
4.3750000000,70,-9.0000000000,,,
4.3769531250,70,-46.0000000000,,,
4.3789062500,70,-44.0000000000,,,
4.3808593750,70,41.0000000000,,,
4.3828125000,70,93.0000000000,,,
4.3847656250,70,60.0000000000,,,
4.3867187500,70,41.0000000000,,,
4.3886718750,70,-9.0000000000,,,
4.3906250000,70,-44.0000000000,,,
4.3925781250,70,-6.0000000000,,,
4.3945312500,70,19.0000000000,,,
4.3964843750,70,8.0000000000,,,
4.3984375000,70,4.0000000000,,,
4.4003906250,70,51.0000000000,,,
4.4023437500,70,105.0000000000,,,
4.4042968750,70,48.0000000000,,,
4.4062500000,70,-13.0000000000,,,
4.4082031250,70,167.0000000000,,,
4.4101562500,70,266.0000000000,,,
4.4121093750,70,116.0000000000,,,
4.4140625000,70,-10.0000000000,,,
4.4160156250,70,-4.0000000000,,,
4.4179687500,70,96.0000000000,,,
4.4199218750,70,196.0000000000,,,
4.4218750000,70,217.0000000000,,,
4.4238281250,70,145.0000000000,,,
4.4257812500,70,71.0000000000,,,
4.4277343750,70,11.0000000000,,,
4.4296875000,70,1.0000000000,,,
4.4316406250,70,152.0000000000,,,
4.4335937500,70,299.0000000000,,,
4.4355468750,70,250.0000000000,,,
4.4375000000,71,45.0000000000,,,
4.4394531250,71,-60.0000000000,,,
4.4414062500,71,49.0000000000,,,
4.4433593750,71,172.0000000000,,,
4.4453125000,71,57.0000000000,,,
4.4472656250,71,-94.0000000000,,,
4.4492187500,71,-148.0000000000,,,
4.4511718750,71,-130.0000000000,,,
4.4531250000,71,-121.0000000000,,,
4.4550781250,71,-136.0000000000,,,
4.4570312500,71,-38.0000000000,,,
4.4589843750,71,29.0000000000,,,
4.4609375000,71,-8.0000000000,,,
4.4628906250,71,39.0000000000,,,
4.4648437500,71,58.0000000000,,,
4.4667968750,71,-3.0000000000,,,
4.4687500000,71,-73.0000000000,,,
4.4707031250,71,-122.0000000000,,,
4.4726562500,71,-107.0000000000,,,
4.4746093750,71,-6.0000000000,,,
4.4765625000,71,69.0000000000,,,
4.4785156250,71,28.0000000000,,,
4.4804687500,71,4.0000000000,,,
4.4824218750,71,56.0000000000,,,
4.4843750000,71,131.0000000000,,,
4.4863281250,71,120.0000000000,,,
4.4882812500,71,17.0000000000,,,
4.4902343750,71,-65.0000000000,,,
4.4921875000,71,-54.0000000000,,,
4.4941406250,71,6.0000000000,,,
4.4960937500,71,53.0000000000,,,
4.4980468750,71,70.0000000000,,,
4.5000000000,72,-26.0000000000,,,
4.5019531250,72,-90.0000000000,,,
4.5039062500,72,3.0000000000,,,
4.5058593750,72,130.0000000000,,,
4.5078125000,72,197.0000000000,,,
4.5097656250,72,145.0000000000,,,
4.5117187500,72,56.0000000000,,,
4.5136718750,72,36.0000000000,,,
4.5156250000,72,-13.0000000000,,,
4.5175781250,72,8.0000000000,,,
4.5195312500,72,122.0000000000,,,
4.5214843750,72,130.0000000000,,,
4.5234375000,72,76.0000000000,,,
4.5253906250,72,66.0000000000,,,
4.5273437500,72,54.0000000000,,,
4.5292968750,72,44.0000000000,,,
4.5312500000,72,21.0000000000,,,
4.5332031250,72,84.0000000000,,,
4.5351562500,72,167.0000000000,,,
4.5371093750,72,210.0000000000,,,
4.5390625000,72,225.0000000000,,,
4.5410156250,72,131.0000000000,,,
4.5429687500,72,-23.0000000000,,,
4.5449218750,72,-72.0000000000,,,
4.5468750000,72,-39.0000000000,,,
4.5488281250,72,1.0000000000,,,
4.5507812500,72,50.0000000000,,,
4.5527343750,72,151.0000000000,,,
4.5546875000,72,186.0000000000,,,
4.5566406250,72,92.0000000000,,,
4.5585937500,72,71.0000000000,,,
4.5605468750,72,71.0000000000,,,
4.5625000000,73,7.0000000000,,,
4.5644531250,73,4.0000000000,,,
4.5664062500,73,9.0000000000,,,
4.5683593750,73,37.0000000000,,,
4.5703125000,73,92.0000000000,,,
4.5722656250,73,42.0000000000,,,
4.5742187500,73,1.0000000000,,,
4.5761718750,73,45.0000000000,,,
4.5781250000,73,109.0000000000,,,
4.5800781250,73,37.0000000000,,,
4.5820312500,73,-56.0000000000,,,
4.5839843750,73,-76.0000000000,,,
4.5859375000,73,-57.0000000000,,,
4.5878906250,73,-42.0000000000,,,
4.5898437500,73,-38.0000000000,,,
4.5917968750,73,9.0000000000,,,
4.5937500000,73,114.0000000000,,,
4.5957031250,73,212.0000000000,,,
4.5976562500,73,161.0000000000,,,
4.5996093750,73,20.0000000000,,,
4.6015625000,73,-19.0000000000,,,
4.6035156250,73,10.0000000000,,,
4.6054687500,73,-22.0000000000,,,
4.6074218750,73,-82.0000000000,,,
4.6093750000,73,-90.0000000000,,,
4.6113281250,73,7.0000000000,,,
4.6132812500,73,135.0000000000,,,
4.6152343750,73,105.0000000000,,,
4.6171875000,73,22.0000000000,,,
4.6191406250,73,6.0000000000,,,
4.6210937500,73,-103.0000000000,,,
4.6230468750,73,-189.0000000000,,,
4.6250000000,74,-133.0000000000,,,
4.6269531250,74,-78.0000000000,,,
4.6289062500,74,-123.0000000000,,,
4.6308593750,74,-180.0000000000,,,
4.6328125000,74,-152.0000000000,,,
4.6347656250,74,-69.0000000000,,,
4.6367187500,74,67.0000000000,,,
4.6386718750,74,151.0000000000,,,
4.6406250000,74,32.0000000000,,,
4.6425781250,74,-101.0000000000,,,
4.6445312500,74,-123.0000000000,,,
4.6464843750,74,-82.0000000000,,,
4.6484375000,74,-23.0000000000,,,
4.6503906250,74,-1.0000000000,,,
4.6523437500,74,-10.0000000000,,,
4.6542968750,74,-77.0000000000,,,
4.6562500000,74,-120.0000000000,,,
4.6582031250,74,-131.0000000000,,,
4.6601562500,74,-98.0000000000,,,
4.6621093750,74,52.0000000000,,,
4.6640625000,74,99.0000000000,,,
4.6660156250,74,-33.0000000000,,,
4.6679687500,74,-118.0000000000,,,
4.6699218750,74,-40.0000000000,,,
4.6718750000,74,66.0000000000,,,
4.6738281250,74,96.0000000000,,,
4.6757812500,74,39.0000000000,,,
4.6777343750,74,2.0000000000,,,
4.6796875000,74,-8.0000000000,,,
4.6816406250,74,-42.0000000000,,,
4.6835937500,74,-68.0000000000,,,
4.6855468750,74,-92.0000000000,,,
4.6875000000,75,-91.0000000000,,,
4.6894531250,75,-65.0000000000,,,
4.6914062500,75,-13.0000000000,,,
4.6933593750,75,37.0000000000,,,
4.6953125000,75,82.0000000000,,,
4.6972656250,75,139.0000000000,,,
4.6992187500,75,73.0000000000,,,
4.7011718750,75,-38.0000000000,,,
4.7031250000,75,16.0000000000,,,
4.7050781250,75,56.0000000000,,,
4.7070312500,75,20.0000000000,,,
4.7089843750,75,4.0000000000,,,
4.7109375000,75,-33.0000000000,,,
4.7128906250,75,-65.0000000000,,,
4.7148437500,75,69.0000000000,,,
4.7167968750,75,249.0000000000,,,
4.7187500000,75,160.0000000000,,,
4.7207031250,75,-40.0000000000,,,
4.7226562500,75,-83.0000000000,,,
4.7246093750,75,-23.0000000000,,,
4.7265625000,75,5.0000000000,,,
4.7285156250,75,0.0000000000,,,
4.7304687500,75,13.0000000000,,,
4.7324218750,75,56.0000000000,,,
4.7343750000,75,50.0000000000,,,
4.7363281250,75,48.0000000000,,,
4.7382812500,75,145.0000000000,,,
4.7402343750,75,157.0000000000,,,
4.7421875000,75,24.0000000000,,,
4.7441406250,75,2.0000000000,,,
4.7460937500,75,73.0000000000,,,
4.7480468750,75,45.0000000000,,,
4.7500000000,76,-42.0000000000,,,
4.7519531250,76,-84.0000000000,,,
4.7539062500,76,-5.0000000000,,,
4.7558593750,76,66.0000000000,,,
4.7578125000,76,48.0000000000,,,
4.7597656250,76,10.0000000000,,,
4.7617187500,76,50.0000000000,,,
4.7636718750,76,123.0000000000,,,
4.7656250000,76,140.0000000000,,,
4.7675781250,76,38.0000000000,,,
4.7695312500,76,-29.0000000000,,,
4.7714843750,76,26.0000000000,,,
4.7734375000,76,168.0000000000,,,
4.7753906250,76,205.0000000000,,,
4.7773437500,76,81.0000000000,,,
4.7792968750,76,-19.0000000000,,,
4.7812500000,76,6.0000000000,,,
4.7832031250,76,58.0000000000,,,
4.7851562500,76,114.0000000000,,,
4.7871093750,76,130.0000000000,,,
4.7890625000,76,84.0000000000,,,
4.7910156250,76,57.0000000000,,,
4.7929687500,76,43.0000000000,,,
4.7949218750,76,28.0000000000,,,
4.7968750000,76,35.0000000000,,,
4.7988281250,76,148.0000000000,,,
4.8007812500,76,346.0000000000,,,
4.8027343750,76,258.0000000000,,,
4.8046875000,76,5.0000000000,,,
4.8066406250,76,-51.0000000000,,,
4.8085937500,76,17.0000000000,,,
4.8105468750,76,43.0000000000,,,
4.8125000000,77,64.0000000000,,,
4.8144531250,77,96.0000000000,,,
4.8164062500,77,6.0000000000,,,
4.8183593750,77,-62.0000000000,,,
4.8203125000,77,-3.0000000000,,,
4.8222656250,77,108.0000000000,,,
4.8242187500,77,195.0000000000,,,
4.8261718750,77,211.0000000000,,,
4.8281250000,77,147.0000000000,,,
4.8300781250,77,50.0000000000,,,
4.8320312500,77,11.0000000000,,,
4.8339843750,77,-33.0000000000,,,
4.8359375000,77,-17.0000000000,,,
4.8378906250,77,64.0000000000,,,
4.8398437500,77,102.0000000000,,,
4.8417968750,77,109.0000000000,,,
4.8437500000,77,90.0000000000,,,
4.8457031250,77,-22.0000000000,,,
4.8476562500,77,-97.0000000000,,,
4.8496093750,77,-50.0000000000,,,
4.8515625000,77,37.0000000000,,,
4.8535156250,77,65.0000000000,,,
4.8554687500,77,50.0000000000,,,
4.8574218750,77,9.0000000000,,,
4.8593750000,77,35.0000000000,,,
4.8613281250,77,43.0000000000,,,
4.8632812500,77,39.0000000000,,,
4.8652343750,77,27.0000000000,,,
4.8671875000,77,22.0000000000,,,
4.8691406250,77,25.0000000000,,,
4.8710937500,77,61.0000000000,,,
4.8730468750,77,85.0000000000,,,
4.8750000000,78,53.0000000000,,,
4.8769531250,78,68.0000000000,,,
4.8789062500,78,97.0000000000,,,
4.8808593750,78,66.0000000000,,,
4.8828125000,78,19.0000000000,,,
4.8847656250,78,-7.0000000000,,,
4.8867187500,78,-40.0000000000,,,
4.8886718750,78,-67.0000000000,,,
4.8906250000,78,-49.0000000000,,,
4.8925781250,78,-11.0000000000,,,
4.8945312500,78,-12.0000000000,,,
4.8964843750,78,-1.0000000000,,,
4.8984375000,78,98.0000000000,,,
4.9003906250,78,145.0000000000,,,
4.9023437500,78,128.0000000000,,,
4.9042968750,78,115.0000000000,,,
4.9062500000,78,55.0000000000,,,
4.9082031250,78,-39.0000000000,,,
4.9101562500,78,-86.0000000000,,,
4.9121093750,78,-73.0000000000,,,
4.9140625000,78,52.0000000000,,,
4.9160156250,78,134.0000000000,,,
4.9179687500,78,4.0000000000,,,
4.9199218750,78,-151.0000000000,,,
4.9218750000,78,-163.0000000000,,,
4.9238281250,78,-117.0000000000,,,
4.9257812500,78,-50.0000000000,,,
4.9277343750,78,-5.0000000000,,,
4.9296875000,78,-52.0000000000,,,
4.9316406250,78,-105.0000000000,,,
4.9335937500,78,-75.0000000000,,,
4.9355468750,78,28.0000000000,,,
4.9375000000,79,107.0000000000,,,
4.9394531250,79,26.0000000000,,,
4.9414062500,79,-12.0000000000,,,
4.9433593750,79,54.0000000000,,,
4.9453125000,79,74.0000000000,,,
4.9472656250,79,49.0000000000,,,
4.9492187500,79,3.0000000000,,,
4.9511718750,79,9.0000000000,,,
4.9531250000,79,83.0000000000,,,
4.9550781250,79,122.0000000000,,,
4.9570312500,79,149.0000000000,,,
4.9589843750,79,148.0000000000,,,
4.9609375000,79,121.0000000000,,,
4.9628906250,79,156.0000000000,,,
4.9648437500,79,194.0000000000,,,
4.9667968750,79,101.0000000000,,,
4.9687500000,79,10.0000000000,,,
4.9707031250,79,36.0000000000,,,
4.9726562500,79,100.0000000000,,,
4.9746093750,79,155.0000000000,,,
4.9765625000,79,218.0000000000,,,
4.9785156250,79,167.0000000000,,,
4.9804687500,79,80.0000000000,,,
4.9824218750,79,44.0000000000,,,
4.9843750000,79,85.0000000000,,,
4.9863281250,79,128.0000000000,,,
4.9882812500,79,66.0000000000,,,
4.9902343750,79,-35.0000000000,,,
4.9921875000,79,-42.0000000000,,,
4.9941406250,79,107.0000000000,,,
4.9960937500,79,157.0000000000,,,
4.9980468750,79,49.0000000000,,,
5.0000000000,80,24.0000000000,,,
5.0019531250,80,64.0000000000,,,
5.0039062500,80,37.0000000000,,,
5.0058593750,80,28.0000000000,,,
5.0078125000,80,119.0000000000,,,
5.0097656250,80,169.0000000000,,,
5.0117187500,80,-9.0000000000,,,
5.0136718750,80,-130.0000000000,,,
5.0156250000,80,-59.0000000000,,,
5.0175781250,80,20.0000000000,,,
5.0195312500,80,129.0000000000,,,
5.0214843750,80,192.0000000000,,,
5.0234375000,80,72.0000000000,,,
5.0253906250,80,-33.0000000000,,,
5.0273437500,80,-65.0000000000,,,
5.0292968750,80,-49.0000000000,,,
5.0312500000,80,-7.0000000000,,,
5.0332031250,80,33.0000000000,,,
5.0351562500,80,102.0000000000,,,
5.0371093750,80,162.0000000000,,,
5.0390625000,80,113.0000000000,,,
5.0410156250,80,-58.0000000000,,,
5.0429687500,80,-86.0000000000,,,
5.0449218750,80,-59.0000000000,,,
5.0468750000,80,-57.0000000000,,,
5.0488281250,80,-37.0000000000,,,
5.0507812500,80,-35.0000000000,,,
5.0527343750,80,-88.0000000000,,,
5.0546875000,80,-148.0000000000,,,
5.0566406250,80,-109.0000000000,,,
5.0585937500,80,-18.0000000000,,,
5.0605468750,80,-29.0000000000,,,
5.0625000000,81,-56.0000000000,,,
5.0644531250,81,-19.0000000000,,,
5.0664062500,81,-50.0000000000,,,
5.0683593750,81,-139.0000000000,,,
5.0703125000,81,-241.0000000000,,,
5.0722656250,81,-248.0000000000,,,
5.0742187500,81,-66.0000000000,,,
5.0761718750,81,148.0000000000,,,
5.0781250000,81,144.0000000000,,,
5.0800781250,81,-25.0000000000,,,
5.0820312500,81,-171.0000000000,,,
5.0839843750,81,-168.0000000000,,,
5.0859375000,81,-119.0000000000,,,
5.0878906250,81,-67.0000000000,,,
5.0898437500,81,-43.0000000000,,,
5.0917968750,81,-122.0000000000,,,
5.0937500000,81,-142.0000000000,,,
5.0957031250,81,-86.0000000000,,,
5.0976562500,81,-6.0000000000,,,
5.0996093750,81,123.0000000000,,,
5.1015625000,81,220.0000000000,,,
5.1035156250,81,131.0000000000,,,
5.1054687500,81,35.0000000000,,,
5.1074218750,81,21.0000000000,,,
5.1093750000,81,60.0000000000,,,
5.1113281250,81,119.0000000000,,,
5.1132812500,81,151.0000000000,,,
5.1152343750,81,152.0000000000,,,
5.1171875000,81,118.0000000000,,,
5.1191406250,81,138.0000000000,,,
5.1210937500,81,134.0000000000,,,
5.1230468750,81,80.0000000000,,,
5.1250000000,82,39.0000000000,,,
5.1269531250,82,92.0000000000,,,
5.1289062500,82,170.0000000000,,,
5.1308593750,82,136.0000000000,,,
5.1328125000,82,66.0000000000,,,
5.1347656250,82,82.0000000000,,,
5.1367187500,82,123.0000000000,,,
5.1386718750,82,202.0000000000,,,
5.1406250000,82,218.0000000000,,,
5.1425781250,82,57.0000000000,,,
5.1445312500,82,-83.0000000000,,,
5.1464843750,82,-100.0000000000,,,
5.1484375000,82,26.0000000000,,,
5.1503906250,82,37.0000000000,,,
5.1523437500,82,-41.0000000000,,,
5.1542968750,82,27.0000000000,,,
5.1562500000,82,166.0000000000,,,
5.1582031250,82,81.0000000000,,,
5.1601562500,82,-77.0000000000,,,
5.1621093750,82,-81.0000000000,,,
5.1640625000,82,-51.0000000000,,,
5.1660156250,82,-34.0000000000,,,
5.1679687500,82,-9.0000000000,,,
5.1699218750,82,-26.0000000000,,,
5.1718750000,82,-53.0000000000,,,
5.1738281250,82,-50.0000000000,,,
5.1757812500,82,-43.0000000000,,,
5.1777343750,82,1.0000000000,,,
5.1796875000,82,82.0000000000,,,
5.1816406250,82,67.0000000000,,,
5.1835937500,82,10.0000000000,,,
5.1855468750,82,33.0000000000,,,
5.1875000000,83,115.0000000000,,,
5.1894531250,83,20.0000000000,,,
5.1914062500,83,-98.0000000000,,,
5.1933593750,83,-5.0000000000,,,
5.1953125000,83,134.0000000000,,,
5.1972656250,83,130.0000000000,,,
5.1992187500,83,71.0000000000,,,
5.2011718750,83,51.0000000000,,,
5.2031250000,83,23.0000000000,,,
5.2050781250,83,0.0000000000,,,
5.2070312500,83,50.0000000000,,,
5.2089843750,83,76.0000000000,,,
5.2109375000,83,43.0000000000,,,
5.2128906250,83,52.0000000000,,,
5.2148437500,83,-12.0000000000,,,
5.2167968750,83,-97.0000000000,,,
5.2187500000,83,-94.0000000000,,,
5.2207031250,83,-49.0000000000,,,
5.2226562500,83,-5.0000000000,,,
5.2246093750,83,60.0000000000,,,
5.2265625000,83,-2.0000000000,,,
5.2285156250,83,-104.0000000000,,,
5.2304687500,83,-17.0000000000,,,
5.2324218750,83,125.0000000000,,,
5.2343750000,83,101.0000000000,,,
5.2363281250,83,-10.0000000000,,,
5.2382812500,83,-89.0000000000,,,
5.2402343750,83,-106.0000000000,,,
5.2421875000,83,-20.0000000000,,,
5.2441406250,83,90.0000000000,,,
5.2460937500,83,107.0000000000,,,
5.2480468750,83,11.0000000000,,,
5.2500000000,84,17.0000000000,,,
5.2519531250,84,68.0000000000,,,
5.2539062500,84,55.0000000000,,,
5.2558593750,84,10.0000000000,,,
5.2578125000,84,13.0000000000,,,
5.2597656250,84,72.0000000000,,,
5.2617187500,84,123.0000000000,,,
5.2636718750,84,97.0000000000,,,
5.2656250000,84,84.0000000000,,,
5.2675781250,84,55.0000000000,,,
5.2695312500,84,5.0000000000,,,
5.2714843750,84,-2.0000000000,,,
5.2734375000,84,5.0000000000,,,
5.2753906250,84,61.0000000000,,,
5.2773437500,84,134.0000000000,,,
5.2792968750,84,115.0000000000,,,
5.2812500000,84,53.0000000000,,,
5.2832031250,84,164.0000000000,,,
5.2851562500,84,282.0000000000,,,
5.2871093750,84,263.0000000000,,,
5.2890625000,84,273.0000000000,,,
5.2910156250,84,234.0000000000,,,
5.2929687500,84,139.0000000000,,,
5.2949218750,84,41.0000000000,,,
5.2968750000,84,84.0000000000,,,
5.2988281250,84,192.0000000000,,,
5.3007812500,84,183.0000000000,,,
5.3027343750,84,104.0000000000,,,
5.3046875000,84,89.0000000000,,,
5.3066406250,84,160.0000000000,,,
5.3085937500,84,232.0000000000,,,
5.3105468750,84,187.0000000000,,,
5.3125000000,85,113.0000000000,,,
5.3144531250,85,98.0000000000,,,
5.3164062500,85,209.0000000000,,,
5.3183593750,85,279.0000000000,,,
5.3203125000,85,92.0000000000,,,
5.3222656250,85,-69.0000000000,,,
5.3242187500,85,12.0000000000,,,
5.3261718750,85,209.0000000000,,,
5.3281250000,85,256.0000000000,,,
5.3300781250,85,177.0000000000,,,
5.3320312500,85,106.0000000000,,,
5.3339843750,85,49.0000000000,,,
5.3359375000,85,40.0000000000,,,
5.3378906250,85,36.0000000000,,,
5.3398437500,85,38.0000000000,,,
5.3417968750,85,55.0000000000,,,
5.3437500000,85,44.0000000000,,,
5.3457031250,85,54.0000000000,,,
5.3476562500,85,118.0000000000,,,
5.3496093750,85,97.0000000000,,,
5.3515625000,85,39.0000000000,,,
5.3535156250,85,72.0000000000,,,
5.3554687500,85,148.0000000000,,,
5.3574218750,85,179.0000000000,,,
5.3593750000,85,173.0000000000,,,
5.3613281250,85,147.0000000000,,,
5.3632812500,85,107.0000000000,,,
5.3652343750,85,51.0000000000,,,
5.3671875000,85,32.0000000000,,,
5.3691406250,85,113.0000000000,,,
5.3710937500,85,178.0000000000,,,
5.3730468750,85,213.0000000000,,,
5.3750000000,86,172.0000000000,,,
5.3769531250,86,108.0000000000,,,
5.3789062500,86,102.0000000000,,,
5.3808593750,86,97.0000000000,,,
5.3828125000,86,119.0000000000,,,
5.3847656250,86,225.0000000000,,,
5.3867187500,86,253.0000000000,,,
5.3886718750,86,202.0000000000,,,
5.3906250000,86,152.0000000000,,,
5.3925781250,86,154.0000000000,,,
5.3945312500,86,183.0000000000,,,
5.3964843750,86,117.0000000000,,,
5.3984375000,86,69.0000000000,,,
5.4003906250,86,112.0000000000,,,
5.4023437500,86,184.0000000000,,,
5.4042968750,86,233.0000000000,,,
5.4062500000,86,235.0000000000,,,
5.4082031250,86,178.0000000000,,,
5.4101562500,86,106.0000000000,,,
5.4121093750,86,103.0000000000,,,
5.4140625000,86,136.0000000000,,,
5.4160156250,86,107.0000000000,,,
5.4179687500,86,77.0000000000,,,
5.4199218750,86,115.0000000000,,,
5.4218750000,86,208.0000000000,,,
5.4238281250,86,226.0000000000,,,
5.4257812500,86,106.0000000000,,,
5.4277343750,86,60.0000000000,,,
5.4296875000,86,125.0000000000,,,
5.4316406250,86,266.0000000000,,,
5.4335937500,86,342.0000000000,,,
5.4355468750,86,210.0000000000,,,
5.4375000000,87,73.0000000000,,,
5.4394531250,87,58.0000000000,,,
5.4414062500,87,146.0000000000,,,
5.4433593750,87,196.0000000000,,,
5.4453125000,87,202.0000000000,,,
5.4472656250,87,165.0000000000,,,
5.4492187500,87,50.0000000000,,,
5.4511718750,87,52.0000000000,,,
5.4531250000,87,138.0000000000,,,
5.4550781250,87,146.0000000000,,,
5.4570312500,87,17.0000000000,,,
5.4589843750,87,-60.0000000000,,,
5.4609375000,87,19.0000000000,,,
5.4628906250,87,164.0000000000,,,
5.4648437500,87,211.0000000000,,,
5.4667968750,87,76.0000000000,,,
5.4687500000,87,-97.0000000000,,,
5.4707031250,87,-106.0000000000,,,
5.4726562500,87,-10.0000000000,,,
5.4746093750,87,59.0000000000,,,
5.4765625000,87,54.0000000000,,,
5.4785156250,87,-9.0000000000,,,
5.4804687500,87,10.0000000000,,,
5.4824218750,87,58.0000000000,,,
5.4843750000,87,-46.0000000000,,,
5.4863281250,87,-140.0000000000,,,
5.4882812500,87,-104.0000000000,,,
5.4902343750,87,-68.0000000000,,,
5.4921875000,87,-92.0000000000,,,
5.4941406250,87,-164.0000000000,,,
5.4960937500,87,-165.0000000000,,,
5.4980468750,87,-187.0000000000,,,
5.5000000000,88,-213.0000000000,,,
5.5019531250,88,-210.0000000000,,,
5.5039062500,88,-163.0000000000,,,
5.5058593750,88,-168.0000000000,,,
5.5078125000,88,-185.0000000000,,,
5.5097656250,88,-250.0000000000,,,
5.5117187500,88,-363.0000000000,,,
5.5136718750,88,-454.0000000000,,,
5.5156250000,88,-490.0000000000,,,
5.5175781250,88,-424.0000000000,,,
5.5195312500,88,-361.0000000000,,,
5.5214843750,88,-421.0000000000,,,
5.5234375000,88,-535.0000000000,,,
5.5253906250,88,-621.0000000000,,,
5.5273437500,88,-594.0000000000,,,
5.5292968750,88,-469.0000000000,,,
5.5312500000,88,-457.0000000000,,,
5.5332031250,88,-570.0000000000,,,
5.5351562500,88,-581.0000000000,,,
5.5371093750,88,-436.0000000000,,,
5.5390625000,88,-394.0000000000,,,
5.5410156250,88,-518.0000000000,,,
5.5429687500,88,-584.0000000000,,,
5.5449218750,88,-519.0000000000,,,
5.5468750000,88,-487.0000000000,,,
5.5488281250,88,-513.0000000000,,,
5.5507812500,88,-513.0000000000,,,
5.5527343750,88,-455.0000000000,,,
5.5546875000,88,-328.0000000000,,,
5.5566406250,88,-327.0000000000,,,
5.5585937500,88,-371.0000000000,,,
5.5605468750,88,-425.0000000000,,,
5.5625000000,89,-468.0000000000,,,
5.5644531250,89,-377.0000000000,,,
5.5664062500,89,-273.0000000000,,,
5.5683593750,89,-300.0000000000,,,
5.5703125000,89,-388.0000000000,,,
5.5722656250,89,-406.0000000000,,,
5.5742187500,89,-372.0000000000,,,
5.5761718750,89,-273.0000000000,,,
5.5781250000,89,-86.0000000000,,,
5.5800781250,89,-52.0000000000,,,
5.5820312500,89,-182.0000000000,,,
5.5839843750,89,-231.0000000000,,,
5.5859375000,89,-261.0000000000,,,
5.5878906250,89,-277.0000000000,,,
5.5898437500,89,-138.0000000000,,,
5.5917968750,89,0.0000000000,,,
5.5937500000,89,-124.0000000000,,,
5.5957031250,89,-276.0000000000,,,
5.5976562500,89,-284.0000000000,,,
5.5996093750,89,-244.0000000000,,,
5.6015625000,89,-198.0000000000,,,
5.6035156250,89,-180.0000000000,,,
5.6054687500,89,-116.0000000000,,,
5.6074218750,89,-94.0000000000,,,
5.6093750000,89,-164.0000000000,,,
5.6113281250,89,-259.0000000000,,,
5.6132812500,89,-235.0000000000,,,
5.6152343750,89,-153.0000000000,,,
5.6171875000,89,-148.0000000000,,,
5.6191406250,89,-220.0000000000,,,
5.6210937500,89,-257.0000000000,,,
5.6230468750,89,-180.0000000000,,,
5.6250000000,90,-131.0000000000,,,
5.6269531250,90,-194.0000000000,,,
5.6289062500,90,-227.0000000000,,,
5.6308593750,90,-140.0000000000,,,
5.6328125000,90,-37.0000000000,,,
5.6347656250,90,-1.0000000000,,,
5.6367187500,90,-23.0000000000,,,
5.6386718750,90,-1.0000000000,,,
5.6406250000,90,90.0000000000,,,
5.6425781250,90,84.0000000000,,,
5.6445312500,90,22.0000000000,,,
5.6464843750,90,28.0000000000,,,
5.6484375000,90,64.0000000000,,,
5.6503906250,90,120.0000000000,,,
5.6523437500,90,217.0000000000,,,
5.6542968750,90,221.0000000000,,,
5.6562500000,90,218.0000000000,,,
5.6582031250,90,214.0000000000,,,
5.6601562500,90,141.0000000000,,,
5.6621093750,90,133.0000000000,,,
5.6640625000,90,181.0000000000,,,
5.6660156250,90,237.0000000000,,,
5.6679687500,90,227.0000000000,,,
5.6699218750,90,136.0000000000,,,
5.6718750000,90,101.0000000000,,,
5.6738281250,90,170.0000000000,,,
5.6757812500,90,177.0000000000,,,
5.6777343750,90,186.0000000000,,,
5.6796875000,90,231.0000000000,,,
5.6816406250,90,285.0000000000,,,
5.6835937500,90,341.0000000000,,,
5.6855468750,90,263.0000000000,,,
5.6875000000,91,186.0000000000,,,
5.6894531250,91,278.0000000000,,,
5.6914062500,91,326.0000000000,,,
5.6933593750,91,283.0000000000,,,
5.6953125000,91,290.0000000000,,,
5.6972656250,91,293.0000000000,,,
5.6992187500,91,137.0000000000,,,
5.7011718750,91,0.0000000000,,,
5.7031250000,91,44.0000000000,,,
5.7050781250,91,152.0000000000,,,
5.7070312500,91,134.0000000000,,,
5.7089843750,91,67.0000000000,,,
5.7109375000,91,-71.0000000000,,,
5.7128906250,91,-163.0000000000,,,
5.7148437500,91,-100.0000000000,,,
5.7167968750,91,-19.0000000000,,,
5.7187500000,91,-114.0000000000,,,
5.7207031250,91,-354.0000000000,,,
5.7226562500,91,-474.0000000000,,,
5.7246093750,91,-397.0000000000,,,
5.7265625000,91,-313.0000000000,,,
5.7285156250,91,-282.0000000000,,,
5.7304687500,91,-356.0000000000,,,
5.7324218750,91,-436.0000000000,,,
5.7343750000,91,-506.0000000000,,,
5.7363281250,91,-539.0000000000,,,
5.7382812500,91,-488.0000000000,,,
5.7402343750,91,-473.0000000000,,,
5.7421875000,91,-445.0000000000,,,
5.7441406250,91,-418.0000000000,,,
5.7460937500,91,-444.0000000000,,,
5.7480468750,91,-434.0000000000,,,
5.7500000000,92,-423.0000000000,,,
5.7519531250,92,-446.0000000000,,,
5.7539062500,92,-419.0000000000,,,
5.7558593750,92,-386.0000000000,,,
5.7578125000,92,-441.0000000000,,,
5.7597656250,92,-443.0000000000,,,
5.7617187500,92,-361.0000000000,,,
5.7636718750,92,-350.0000000000,,,
5.7656250000,92,-321.0000000000,,,
5.7675781250,92,-286.0000000000,,,
5.7695312500,92,-253.0000000000,,,
5.7714843750,92,-140.0000000000,,,
5.7734375000,92,-98.0000000000,,,
5.7753906250,92,-203.0000000000,,,
5.7773437500,92,-212.0000000000,,,
5.7792968750,92,-76.0000000000,,,
5.7812500000,92,-20.0000000000,,,
5.7832031250,92,-1.0000000000,,,
5.7851562500,92,40.0000000000,,,
5.7871093750,92,50.0000000000,,,
5.7890625000,92,8.0000000000,,,
5.7910156250,92,-91.0000000000,,,
5.7929687500,92,-168.0000000000,,,
5.7949218750,92,-83.0000000000,,,
5.7968750000,92,119.0000000000,,,
5.7988281250,92,200.0000000000,,,
5.8007812500,92,86.0000000000,,,
5.8027343750,92,-4.0000000000,,,
5.8046875000,92,-36.0000000000,,,
5.8066406250,92,-24.0000000000,,,
5.8085937500,92,23.0000000000,,,
5.8105468750,92,54.0000000000,,,
5.8125000000,93,112.0000000000,,,
5.8144531250,93,90.0000000000,,,
5.8164062500,93,-17.0000000000,,,
5.8183593750,93,-6.0000000000,,,
5.8203125000,93,156.0000000000,,,
5.8222656250,93,248.0000000000,,,
5.8242187500,93,200.0000000000,,,
5.8261718750,93,76.0000000000,,,
5.8281250000,93,13.0000000000,,,
5.8300781250,93,135.0000000000,,,
5.8320312500,93,280.0000000000,,,
5.8339843750,93,260.0000000000,,,
5.8359375000,93,137.0000000000,,,
5.8378906250,93,40.0000000000,,,
5.8398437500,93,40.0000000000,,,
5.8417968750,93,167.0000000000,,,
5.8437500000,93,282.0000000000,,,
5.8457031250,93,292.0000000000,,,
5.8476562500,93,281.0000000000,,,
5.8496093750,93,291.0000000000,,,
5.8515625000,93,234.0000000000,,,
5.8535156250,93,195.0000000000,,,
5.8554687500,93,225.0000000000,,,
5.8574218750,93,279.0000000000,,,
5.8593750000,93,289.0000000000,,,
5.8613281250,93,242.0000000000,,,
5.8632812500,93,149.0000000000,,,
5.8652343750,93,103.0000000000,,,
5.8671875000,93,125.0000000000,,,
5.8691406250,93,168.0000000000,,,
5.8710937500,93,224.0000000000,,,
5.8730468750,93,243.0000000000,,,
5.8750000000,94,189.0000000000,,,
5.8769531250,94,168.0000000000,,,
5.8789062500,94,198.0000000000,,,
5.8808593750,94,275.0000000000,,,
5.8828125000,94,357.0000000000,,,
5.8847656250,94,264.0000000000,,,
5.8867187500,94,149.0000000000,,,
5.8886718750,94,162.0000000000,,,
5.8906250000,94,201.0000000000,,,
5.8925781250,94,176.0000000000,,,
5.8945312500,94,125.0000000000,,,
5.8964843750,94,57.0000000000,,,
5.8984375000,94,-37.0000000000,,,
5.9003906250,94,-24.0000000000,,,
5.9023437500,94,49.0000000000,,,
5.9042968750,94,114.0000000000,,,
5.9062500000,94,165.0000000000,,,
5.9082031250,94,185.0000000000,,,
5.9101562500,94,199.0000000000,,,
5.9121093750,94,179.0000000000,,,
5.9140625000,94,113.0000000000,,,
5.9160156250,94,82.0000000000,,,
5.9179687500,94,131.0000000000,,,
5.9199218750,94,170.0000000000,,,
5.9218750000,94,144.0000000000,,,
5.9238281250,94,116.0000000000,,,
5.9257812500,94,106.0000000000,,,
5.9277343750,94,101.0000000000,,,
5.9296875000,94,168.0000000000,,,
5.9316406250,94,240.0000000000,,,
5.9335937500,94,246.0000000000,,,
5.9355468750,94,232.0000000000,,,
5.9375000000,95,144.0000000000,,,
5.9394531250,95,-50.0000000000,,,
5.9414062500,95,-218.0000000000,,,
5.9433593750,95,-298.0000000000,,,
5.9453125000,95,-424.0000000000,,,
5.9472656250,95,-506.0000000000,,,
5.9492187500,95,-530.0000000000,,,
5.9511718750,95,-676.0000000000,,,
5.9531250000,95,-922.0000000000,,,
5.9550781250,95,-951.0000000000,,,
5.9570312500,95,-964.0000000000,33552,5.9570312500,0.0000000000
5.9589843750,95,-1351.0000000000,,,
5.9609375000,95,-1436.0000000000,,,
5.9628906250,95,-1237.0000000000,,,
5.9648437500,95,-961.0000000000,,,
5.9667968750,95,-929.0000000000,,,
5.9687500000,95,-1077.0000000000,,,
5.9707031250,95,-1223.0000000000,,,
5.9726562500,95,-1273.0000000000,,,
5.9746093750,95,-1220.0000000000,,,
5.9765625000,95,-1180.0000000000,,,
5.9785156250,95,-1252.0000000000,,,
5.9804687500,95,-1361.0000000000,,,
5.9824218750,95,-1357.0000000000,,,
5.9843750000,95,-1303.0000000000,,,
5.9863281250,95,-1244.0000000000,,,
5.9882812500,95,-1194.0000000000,,,
5.9902343750,95,-1146.0000000000,,,
5.9921875000,95,-1125.0000000000,,,
5.9941406250,95,-1098.0000000000,,,
5.9960937500,95,-1058.0000000000,,,
5.9980468750,95,-1012.0000000000,,,
6.0000000000,96,-970.0000000000,,,
6.0019531250,96,-937.0000000000,,,
6.0039062500,96,-910.0000000000,,,
6.0058593750,96,-882.0000000000,,,
6.0078125000,96,-849.0000000000,,,
6.0097656250,96,-812.0000000000,,,
6.0117187500,96,-779.0000000000,,,
6.0136718750,96,-756.0000000000,,,
6.0156250000,96,-729.0000000000,,,
6.0175781250,96,-700.0000000000,,,
6.0195312500,96,-673.0000000000,,,
6.0214843750,96,-647.0000000000,,,
6.0234375000,96,-621.0000000000,,,
6.0253906250,96,-597.0000000000,,,
6.0273437500,96,-572.0000000000,,,
6.0292968750,96,-551.0000000000,,,
6.0312500000,96,-531.0000000000,,,
6.0332031250,96,-508.0000000000,,,
6.0351562500,96,-488.0000000000,,,
6.0371093750,96,-470.0000000000,,,
6.0390625000,96,-451.0000000000,,,
6.0410156250,96,-434.0000000000,,,
6.0429687500,96,-417.0000000000,,,
6.0449218750,96,-398.0000000000,,,
6.0468750000,96,-381.0000000000,,,
6.0488281250,96,-366.0000000000,,,
6.0507812500,96,-353.0000000000,,,
6.0527343750,96,-338.0000000000,,,
6.0546875000,96,-324.0000000000,,,
6.0566406250,96,-311.0000000000,,,
6.0585937500,96,-297.0000000000,,,
6.0605468750,96,-284.0000000000,,,
6.0625000000,97,-274.0000000000,,,
6.0644531250,97,-262.0000000000,,,
6.0664062500,97,-250.0000000000,,,
6.0683593750,97,-241.0000000000,,,
6.0703125000,97,-230.0000000000,,,
6.0722656250,97,-219.0000000000,,,
6.0742187500,97,-211.0000000000,,,
6.0761718750,97,-200.0000000000,,,
6.0781250000,97,-193.0000000000,,,
6.0800781250,97,-183.0000000000,,,
6.0820312500,97,-174.0000000000,,,
6.0839843750,97,-168.0000000000,,,
6.0859375000,97,-161.0000000000,,,
6.0878906250,97,-153.0000000000,,,
6.0898437500,97,-147.0000000000,,,
6.0917968750,97,-138.0000000000,,,
6.0937500000,97,-132.0000000000,,,
6.0957031250,97,-124.0000000000,,,
6.0976562500,97,-120.0000000000,,,
6.0996093750,97,-115.0000000000,,,
6.1015625000,97,-108.0000000000,,,
6.1035156250,97,-103.0000000000,,,
6.1054687500,97,-98.0000000000,,,
6.1074218750,97,-91.0000000000,,,
6.1093750000,97,-87.0000000000,,,
6.1113281250,97,-83.0000000000,,,
6.1132812500,97,-78.0000000000,,,
6.1152343750,97,-74.0000000000,,,
6.1171875000,97,-70.0000000000,,,
6.1191406250,97,-66.0000000000,,,
6.1210937500,97,-60.0000000000,,,
6.1230468750,97,-58.0000000000,,,
6.1250000000,98,-55.0000000000,,,
6.1269531250,98,-52.0000000000,,,
6.1289062500,98,-46.0000000000,,,
6.1308593750,98,-43.0000000000,,,
6.1328125000,98,-40.0000000000,,,
6.1347656250,98,-38.0000000000,,,
6.1367187500,98,-35.0000000000,,,
6.1386718750,98,-33.0000000000,,,
6.1406250000,98,-28.0000000000,,,
6.1425781250,98,-26.0000000000,,,
6.1445312500,98,-24.0000000000,,,
6.1464843750,98,-22.0000000000,,,
6.1484375000,98,-20.0000000000,,,
6.1503906250,98,-18.0000000000,,,
6.1523437500,98,-14.0000000000,,,
6.1542968750,98,-12.0000000000,,,
6.1562500000,98,-10.0000000000,,,
6.1582031250,98,-9.0000000000,,,
6.1601562500,98,-7.0000000000,,,
6.1621093750,98,-6.0000000000,,,
6.1640625000,98,-4.0000000000,,,
6.1660156250,98,-2.0000000000,,,
6.1679687500,98,-1.0000000000,,,
6.1699218750,98,0.0000000000,,,
6.1718750000,98,2.0000000000,,,
6.1738281250,98,4.0000000000,,,
6.1757812500,98,6.0000000000,,,
6.1777343750,98,10.0000000000,,,
6.1796875000,98,20.0000000000,,,
6.1816406250,98,34.0000000000,,,
6.1835937500,98,40.0000000000,,,
6.1855468750,98,41.0000000000,,,
6.1875000000,99,53.0000000000,,,
6.1894531250,99,80.0000000000,,,
6.1914062500,99,117.0000000000,,,
6.1933593750,99,153.0000000000,,,
6.1953125000,99,153.0000000000,,,
6.1972656250,99,150.0000000000,,,
6.1992187500,99,198.0000000000,,,
6.2011718750,99,311.0000000000,,,
6.2031250000,99,420.0000000000,,,
6.2050781250,99,506.0000000000,,,
6.2070312500,99,610.0000000000,,,
6.2089843750,99,700.0000000000,,,
6.2109375000,99,859.0000000000,,,
6.2128906250,99,1067.0000000000,,,
6.2148437500,99,1233.0000000000,,,
6.2167968750,99,1378.0000000000,,,
6.2187500000,99,1555.0000000000,,,
6.2207031250,99,1794.0000000000,,,
6.2226562500,99,2001.0000000000,,,
6.2246093750,99,2047.0000000000,,,
6.2265625000,99,2047.0000000000,,,
6.2285156250,99,2047.0000000000,,,
6.2304687500,99,2047.0000000000,,,
6.2324218750,99,2047.0000000000,,,
6.2343750000,99,2047.0000000000,,,
6.2363281250,99,2047.0000000000,,,
6.2382812500,99,2047.0000000000,,,
6.2402343750,99,2047.0000000000,,,
6.2421875000,99,2047.0000000000,,,
6.2441406250,99,2047.0000000000,,,
6.2460937500,99,2047.0000000000,,,
6.2480468750,99,2047.0000000000,,,
6.2500000000,100,2047.0000000000,,,
6.2519531250,100,2047.0000000000,,,
6.2539062500,100,2047.0000000000,,,
6.2558593750,100,2047.0000000000,,,
6.2578125000,100,2047.0000000000,,,
6.2597656250,100,2047.0000000000,,,
6.2617187500,100,2047.0000000000,,,
6.2636718750,100,2047.0000000000,,,
6.2656250000,100,2047.0000000000,,,
6.2675781250,100,2047.0000000000,,,
6.2695312500,100,2047.0000000000,,,
6.2714843750,100,2047.0000000000,,,
6.2734375000,100,2029.0000000000,,,
6.2753906250,100,1895.0000000000,,,
6.2773437500,100,1833.0000000000,,,
6.2792968750,100,1808.0000000000,,,
6.2812500000,100,1752.0000000000,,,
6.2832031250,100,1629.0000000000,,,
6.2851562500,100,1357.0000000000,,,
6.2871093750,100,1108.0000000000,,,
6.2890625000,100,1027.0000000000,,,
6.2910156250,100,994.0000000000,,,
6.2929687500,100,1027.0000000000,,,
6.2949218750,100,1048.0000000000,,,
6.2968750000,100,1026.0000000000,,,
6.2988281250,100,982.0000000000,,,
6.3007812500,100,824.0000000000,,,
6.3027343750,100,722.0000000000,,,
6.3046875000,100,772.0000000000,,,
6.3066406250,100,810.0000000000,,,
6.3085937500,100,774.0000000000,,,
6.3105468750,100,716.0000000000,,,
6.3125000000,101,683.0000000000,,,
6.3144531250,101,796.0000000000,,,
6.3164062500,101,956.0000000000,,,
6.3183593750,101,945.0000000000,,,
6.3203125000,101,875.0000000000,,,
6.3222656250,101,891.0000000000,,,
6.3242187500,101,955.0000000000,,,
6.3261718750,101,988.0000000000,,,
6.3281250000,101,995.0000000000,,,
6.3300781250,101,1003.0000000000,,,
6.3320312500,101,1003.0000000000,,,
6.3339843750,101,999.0000000000,,,
6.3359375000,101,1081.0000000000,,,
6.3378906250,101,1165.0000000000,,,
6.3398437500,101,1172.0000000000,,,
6.3417968750,101,1100.0000000000,,,
6.3437500000,101,1035.0000000000,,,
6.3457031250,101,1010.0000000000,,,
6.3476562500,101,1014.0000000000,,,
6.3496093750,101,1064.0000000000,,,
6.3515625000,101,1089.0000000000,,,
6.3535156250,101,1029.0000000000,,,
6.3554687500,101,929.0000000000,,,
6.3574218750,101,884.0000000000,,,
6.3593750000,101,923.0000000000,,,
6.3613281250,101,951.0000000000,,,
6.3632812500,101,946.0000000000,,,
6.3652343750,101,928.0000000000,,,
6.3671875000,101,915.0000000000,,,
6.3691406250,101,898.0000000000,,,
6.3710937500,101,873.0000000000,,,
6.3730468750,101,839.0000000000,,,
6.3750000000,102,817.0000000000,,,
6.3769531250,102,810.0000000000,,,
6.3789062500,102,797.0000000000,,,
6.3808593750,102,769.0000000000,,,
6.3828125000,102,733.0000000000,,,
6.3847656250,102,705.0000000000,,,
6.3867187500,102,704.0000000000,,,
6.3886718750,102,692.0000000000,,,
6.3906250000,102,665.0000000000,,,
6.3925781250,102,641.0000000000,,,
6.3945312500,102,614.0000000000,,,
6.3964843750,102,589.0000000000,,,
6.3984375000,102,580.0000000000,,,
6.4003906250,102,569.0000000000,,,
6.4023437500,102,547.0000000000,,,
6.4042968750,102,520.0000000000,,,
6.4062500000,102,504.0000000000,,,
6.4082031250,102,496.0000000000,,,
6.4101562500,102,488.0000000000,,,
6.4121093750,102,470.0000000000,,,
6.4140625000,102,448.0000000000,,,
6.4160156250,102,426.0000000000,,,
6.4179687500,102,410.0000000000,,,
6.4199218750,102,395.0000000000,,,
6.4218750000,102,386.0000000000,,,
6.4238281250,102,379.0000000000,,,
6.4257812500,102,374.0000000000,,,
6.4277343750,102,355.0000000000,,,
6.4296875000,102,320.0000000000,,,
6.4316406250,102,308.0000000000,,,
6.4335937500,102,311.0000000000,,,
6.4355468750,102,298.0000000000,,,
6.4375000000,103,278.0000000000,,,
6.4394531250,103,263.0000000000,,,
6.4414062500,103,245.0000000000,,,
6.4433593750,103,229.0000000000,,,
6.4453125000,103,229.0000000000,,,
6.4472656250,103,242.0000000000,,,
6.4492187500,103,217.0000000000,,,
6.4511718750,103,167.0000000000,,,
6.4531250000,103,140.0000000000,,,
6.4550781250,103,144.0000000000,,,
6.4570312500,103,148.0000000000,,,
6.4589843750,103,135.0000000000,,,
6.4609375000,103,118.0000000000,,,
6.4628906250,103,100.0000000000,,,
6.4648437500,103,53.0000000000,,,
6.4667968750,103,19.0000000000,,,
6.4687500000,103,34.0000000000,,,
6.4707031250,103,49.0000000000,,,
6.4726562500,103,27.0000000000,,,
6.4746093750,103,-23.0000000000,,,
6.4765625000,103,-70.0000000000,,,
6.4785156250,103,-76.0000000000,,,
6.4804687500,103,-74.0000000000,,,
6.4824218750,103,-57.0000000000,,,
6.4843750000,103,-18.0000000000,,,
6.4863281250,103,-45.0000000000,,,
6.4882812500,103,-118.0000000000,,,
6.4902343750,103,-166.0000000000,,,
6.4921875000,103,-156.0000000000,,,
6.4941406250,103,-136.0000000000,,,
6.4960937500,103,-149.0000000000,,,
6.4980468750,103,-151.0000000000,,,
6.5000000000,104,-149.0000000000,,,
6.5019531250,104,-218.0000000000,,,
6.5039062500,104,-313.0000000000,,,
6.5058593750,104,-337.0000000000,,,
6.5078125000,104,-347.0000000000,,,
6.5097656250,104,-381.0000000000,,,
6.5117187500,104,-385.0000000000,,,
6.5136718750,104,-390.0000000000,,,
6.5156250000,104,-418.0000000000,,,
6.5175781250,104,-366.0000000000,33553,6.5175781250,0.0019531250
6.5195312500,104,-366.0000000000,33554,6.5195312500,0.0000000000
6.5214843750,104,-358.0000000000,,,
6.5234375000,104,-458.0000000000,,,
6.5253906250,104,-492.0000000000,,,
6.5273437500,104,-485.0000000000,,,
6.5292968750,104,-505.0000000000,,,
6.5312500000,104,-565.0000000000,,,
6.5332031250,104,-644.0000000000,,,
6.5351562500,104,-726.0000000000,,,
6.5371093750,104,-726.0000000000,,,
6.5390625000,104,-609.0000000000,,,
6.5410156250,104,-531.0000000000,,,
6.5429687500,104,-637.0000000000,,,
6.5449218750,104,-794.0000000000,,,
6.5468750000,104,-865.0000000000,,,
6.5488281250,104,-881.0000000000,,,
6.5507812500,104,-829.0000000000,,,
6.5527343750,104,-757.0000000000,,,
6.5546875000,104,-796.0000000000,,,
6.5566406250,104,-883.0000000000,,,
6.5585937500,104,-869.0000000000,,,
6.5605468750,104,-763.0000000000,,,
6.5625000000,105,-665.0000000000,,,
6.5644531250,105,-699.0000000000,,,
6.5664062500,105,-854.0000000000,,,
6.5683593750,105,-997.0000000000,,,
6.5703125000,105,-1031.0000000000,,,
6.5722656250,105,-1010.0000000000,,,
6.5742187500,105,-989.0000000000,,,
6.5761718750,105,-965.0000000000,,,
6.5781250000,105,-865.0000000000,,,
6.5800781250,105,-881.0000000000,,,
6.5820312500,105,-1013.0000000000,,,
6.5839843750,105,-1090.0000000000,,,
6.5859375000,105,-1076.0000000000,,,
6.5878906250,105,-977.0000000000,,,
6.5898437500,105,-820.0000000000,,,
6.5917968750,105,-772.0000000000,,,
6.5937500000,105,-834.0000000000,,,
6.5957031250,105,-888.0000000000,,,
6.5976562500,105,-884.0000000000,,,
6.5996093750,105,-787.0000000000,,,
6.6015625000,105,-724.0000000000,,,
6.6035156250,105,-777.0000000000,,,
6.6054687500,105,-827.0000000000,,,
6.6074218750,105,-807.0000000000,,,
6.6093750000,105,-794.0000000000,,,
6.6113281250,105,-777.0000000000,,,
6.6132812500,105,-701.0000000000,,,
6.6152343750,105,-670.0000000000,,,
6.6171875000,105,-714.0000000000,,,
6.6191406250,105,-726.0000000000,,,
6.6210937500,105,-716.0000000000,,,
6.6230468750,105,-702.0000000000,,,
6.6250000000,106,-758.0000000000,,,
6.6269531250,106,-797.0000000000,,,
6.6289062500,106,-820.0000000000,,,
6.6308593750,106,-822.0000000000,,,
6.6328125000,106,-755.0000000000,,,
6.6347656250,106,-679.0000000000,,,
6.6367187500,106,-700.0000000000,,,
6.6386718750,106,-764.0000000000,,,
6.6406250000,106,-828.0000000000,,,
6.6425781250,106,-797.0000000000,,,
6.6445312500,106,-686.0000000000,,,
6.6464843750,106,-684.0000000000,,,
6.6484375000,106,-762.0000000000,,,
6.6503906250,106,-788.0000000000,,,
6.6523437500,106,-754.0000000000,,,
6.6542968750,106,-716.0000000000,,,
6.6562500000,106,-791.0000000000,,,
6.6582031250,106,-861.0000000000,,,
6.6601562500,106,-791.0000000000,,,
6.6621093750,106,-648.0000000000,,,
6.6640625000,106,-618.0000000000,,,
6.6660156250,106,-662.0000000000,,,
6.6679687500,106,-646.0000000000,,,
6.6699218750,106,-669.0000000000,,,
6.6718750000,106,-699.0000000000,,,
6.6738281250,106,-618.0000000000,,,
6.6757812500,106,-610.0000000000,,,
6.6777343750,106,-727.0000000000,,,
6.6796875000,106,-817.0000000000,,,
6.6816406250,106,-820.0000000000,,,
6.6835937500,106,-718.0000000000,,,
6.6855468750,106,-600.0000000000,,,
6.6875000000,107,-589.0000000000,,,
6.6894531250,107,-619.0000000000,,,
6.6914062500,107,-599.0000000000,,,
6.6933593750,107,-581.0000000000,,,
6.6953125000,107,-568.0000000000,,,
6.6972656250,107,-521.0000000000,,,
6.6992187500,107,-467.0000000000,,,
6.7011718750,107,-317.0000000000,,,
6.7031250000,107,-220.0000000000,,,
6.7050781250,107,-314.0000000000,,,
6.7070312500,107,-394.0000000000,,,
6.7089843750,107,-345.0000000000,,,
6.7109375000,107,-248.0000000000,,,
6.7128906250,107,-184.0000000000,,,
6.7148437500,107,-206.0000000000,,,
6.7167968750,107,-298.0000000000,,,
6.7187500000,107,-329.0000000000,,,
6.7207031250,107,-228.0000000000,,,
6.7226562500,107,-66.0000000000,,,
6.7246093750,107,-53.0000000000,,,
6.7265625000,107,-196.0000000000,,,
