,Time:512Hz,Epoch,Electrode,Event Id,Event Date,Event Duration
0,0.0,0,177.0,,,
1,0.001953125,0,172.0,,,
2,0.00390625,0,185.0,,,
3,0.005859375,0,225.0,,,
4,0.0078125,0,259.0,,,
5,0.009765625,0,244.0,,,
6,0.01171875,0,186.0,,,
7,0.013671875,0,148.0,,,
8,0.015625,0,176.0,,,
9,0.017578125,0,219.0,,,
10,0.01953125,0,202.0,,,
11,0.021484375,0,163.0,,,
12,0.0234375,0,161.0,,,
13,0.025390625,0,148.0,,,
14,0.02734375,0,117.0,,,
15,0.029296875,0,121.0,,,
16,0.03125,0,146.0,,,
17,0.033203125,0,128.0,,,
18,0.03515625,0,86.0,,,
19,0.037109375,0,88.0,,,
20,0.0390625,0,130.0,,,
21,0.041015625,0,153.0,,,
22,0.04296875,0,147.0,,,
23,0.044921875,0,125.0,,,
24,0.046875,0,132.0,,,
25,0.048828125,0,157.0,,,
26,0.05078125,0,198.0,,,
27,0.052734375,0,258.0,,,
28,0.0546875,0,263.0,,,
29,0.056640625,0,210.0,,,
30,0.05859375,0,155.0,,,
31,0.060546875,0,144.0,,,
32,0.0625,1,144.0,,,
33,0.064453125,1,128.0,,,
34,0.06640625,1,124.0,,,
35,0.068359375,1,151.0,,,
36,0.0703125,1,176.0,,,
37,0.072265625,1,180.0,,,
38,0.07421875,1,165.0,,,
39,0.076171875,1,154.0,,,
40,0.078125,1,147.0,,,
41,0.080078125,1,139.0,,,
42,0.08203125,1,146.0,,,
43,0.083984375,1,154.0,,,
44,0.0859375,1,148.0,,,
45,0.087890625,1,151.0,,,
46,0.08984375,1,145.0,,,
47,0.091796875,1,133.0,,,
48,0.09375,1,136.0,,,
49,0.095703125,1,122.0,,,
50,0.09765625,1,70.0,,,
51,0.099609375,1,48.0,,,
52,0.1015625,1,86.0,,,
53,0.103515625,1,135.0,,,
54,0.10546875,1,120.0,,,
55,0.107421875,1,75.0,,,
56,0.109375,1,70.0,,,
57,0.111328125,1,119.0,,,
58,0.11328125,1,157.0,,,
59,0.115234375,1,140.0,,,
60,0.1171875,1,98.0,,,
61,0.119140625,1,68.0,,,
62,0.12109375,1,80.0,,,
63,0.123046875,1,106.0,,,
64,0.125,2,134.0,,,
65,0.126953125,2,146.0,,,
66,0.12890625,2,146.0,,,
67,0.130859375,2,153.0,,,
68,0.1328125,2,172.0,,,
69,0.134765625,2,209.0,,,
70,0.13671875,2,228.0,,,
71,0.138671875,2,203.0,,,
72,0.140625,2,152.0,,,
73,0.142578125,2,128.0,,,
74,0.14453125,2,131.0,,,
75,0.146484375,2,124.0,,,
76,0.1484375,2,98.0,,,
77,0.150390625,2,69.0,,,
78,0.15234375,2,53.0,,,
79,0.154296875,2,41.0,,,
80,0.15625,2,49.0,,,
81,0.158203125,2,91.0,,,
82,0.16015625,2,118.0,,,
83,0.162109375,2,113.0,,,
84,0.1640625,2,107.0,,,
85,0.166015625,2,99.0,,,
86,0.16796875,2,80.0,,,
87,0.169921875,2,66.0,,,
88,0.171875,2,81.0,,,
89,0.173828125,2,115.0,,,
90,0.17578125,2,114.0,,,
91,0.177734375,2,82.0,,,
92,0.1796875,2,82.0,,,
93,0.181640625,2,116.0,,,
94,0.18359375,2,164.0,,,
95,0.185546875,2,166.0,,,
96,0.1875,3,118.0,,,
97,0.189453125,3,57.0,,,
98,0.19140625,3,20.0,,,
99,0.193359375,3,-4.0,,,
100,0.1953125,3,-24.0,,,
101,0.197265625,3,-8.0,,,
102,0.19921875,3,16.0,,,
103,0.201171875,3,32.0,,,
104,0.203125,3,67.0,,,
105,0.205078125,3,117.0,,,
106,0.20703125,3,147.0,,,
107,0.208984375,3,156.0,,,
108,0.2109375,3,153.0,,,
109,0.212890625,3,170.0,,,
110,0.21484375,3,186.0,,,
111,0.216796875,3,160.0,,,
112,0.21875,3,108.0,,,
113,0.220703125,3,103.0,,,
114,0.22265625,3,112.0,,,
115,0.224609375,3,102.0,,,
116,0.2265625,3,91.0,,,
117,0.228515625,3,116.0,,,
118,0.23046875,3,134.0,,,
119,0.232421875,3,121.0,,,
120,0.234375,3,112.0,,,
121,0.236328125,3,107.0,,,
122,0.23828125,3,88.0,,,
123,0.240234375,3,84.0,,,
124,0.2421875,3,84.0,,,
125,0.244140625,3,67.0,,,
126,0.24609375,3,48.0,,,
127,0.248046875,3,28.0,,,
128,0.25,4,26.0,,,
129,0.251953125,4,36.0,,,
130,0.25390625,4,21.0,,,
131,0.255859375,4,2.0,,,
132,0.2578125,4,19.0,,,
133,0.259765625,4,51.0,,,
134,0.26171875,4,66.0,,,
135,0.263671875,4,71.0,,,
136,0.265625,4,96.0,,,
137,0.267578125,4,121.0,,,
138,0.26953125,4,107.0,,,
139,0.271484375,4,86.0,,,
140,0.2734375,4,82.0,,,
141,0.275390625,4,69.0,,,
142,0.27734375,4,61.0,,,
143,0.279296875,4,75.0,,,
144,0.28125,4,91.0,,,
145,0.283203125,4,105.0,,,
146,0.28515625,4,106.0,,,
147,0.287109375,4,113.0,,,
148,0.2890625,4,141.0,,,
149,0.291015625,4,139.0,,,
150,0.29296875,4,82.0,,,
151,0.294921875,4,49.0,,,
152,0.296875,4,51.0,,,
153,0.298828125,4,39.0,,,
154,0.30078125,4,29.0,,,
155,0.302734375,4,35.0,,,
156,0.3046875,4,40.0,,,
157,0.306640625,4,67.0,,,
158,0.30859375,4,102.0,,,
159,0.310546875,4,137.0,,,
160,0.3125,5,186.0,,,
161,0.314453125,5,205.0,,,
162,0.31640625,5,170.0,,,
163,0.318359375,5,134.0,,,
164,0.3203125,5,123.0,,,
165,0.322265625,5,123.0,,,
166,0.32421875,5,115.0,,,
167,0.326171875,5,103.0,,,
168,0.328125,5,76.0,,,
169,0.330078125,5,58.0,,,
170,0.33203125,5,68.0,,,
171,0.333984375,5,92.0,,,
172,0.3359375,5,107.0,,,
173,0.337890625,5,92.0,,,
174,0.33984375,5,55.0,,,
175,0.341796875,5,22.0,,,
176,0.34375,5,7.0,,,
177,0.345703125,5,6.0,,,
178,0.34765625,5,12.0,,,
179,0.349609375,5,36.0,,,
180,0.3515625,5,59.0,,,
181,0.353515625,5,82.0,,,
182,0.35546875,5,84.0,,,
183,0.357421875,5,93.0,,,
184,0.359375,5,116.0,,,
185,0.361328125,5,112.0,,,
186,0.36328125,5,104.0,,,
187,0.365234375,5,101.0,,,
188,0.3671875,5,109.0,,,
189,0.369140625,5,107.0,,,
190,0.37109375,5,82.0,,,
191,0.373046875,5,54.0,,,
192,0.375,6,48.0,,,
193,0.376953125,6,41.0,,,
194,0.37890625,6,-2.0,,,
195,0.380859375,6,-23.0,,,
196,0.3828125,6,9.0,,,
197,0.384765625,6,58.0,,,
198,0.38671875,6,92.0,,,
199,0.388671875,6,73.0,,,
200,0.390625,6,60.0,,,
201,0.392578125,6,68.0,,,
202,0.39453125,6,58.0,,,
203,0.396484375,6,23.0,,,
204,0.3984375,6,5.0,,,
205,0.400390625,6,16.0,,,
206,0.40234375,6,-9.0,,,
207,0.404296875,6,-70.0,,,
208,0.40625,6,-94.0,,,
209,0.408203125,6,-83.0,,,
210,0.41015625,6,-65.0,,,
211,0.412109375,6,-56.0,,,
212,0.4140625,6,-56.0,,,
213,0.416015625,6,-46.0,,,
214,0.41796875,6,-13.0,,,
215,0.419921875,6,-12.0,,,
216,0.421875,6,-59.0,,,
217,0.423828125,6,-86.0,,,
218,0.42578125,6,-84.0,,,
219,0.427734375,6,-86.0,,,
220,0.4296875,6,-60.0,,,
221,0.431640625,6,-36.0,,,
222,0.43359375,6,-34.0,,,
223,0.435546875,6,-23.0,,,
224,0.4375,7,-36.0,,,
225,0.439453125,7,-53.0,,,
226,0.44140625,7,-29.0,,,
227,0.443359375,7,16.0,,,
228,0.4453125,7,16.0,,,
229,0.447265625,7,-43.0,,,
230,0.44921875,7,-90.0,,,
231,0.451171875,7,-91.0,,,
232,0.453125,7,-72.0,,,
233,0.455078125,7,-76.0,,,
234,0.45703125,7,-91.0,,,
235,0.458984375,7,-62.0,,,
236,0.4609375,7,-13.0,,,
237,0.462890625,7,8.0,,,
238,0.46484375,7,0.0,,,
239,0.466796875,7,-35.0,,,
240,0.46875,7,-82.0,,,
241,0.470703125,7,-87.0,,,
242,0.47265625,7,-52.0,,,
243,0.474609375,7,-4.0,,,
244,0.4765625,7,17.0,,,
245,0.478515625,7,16.0,,,
246,0.48046875,7,21.0,,,
247,0.482421875,7,48.0,,,
248,0.484375,7,68.0,,,
249,0.486328125,7,86.0,,,
250,0.48828125,7,130.0,,,
251,0.490234375,7,187.0,,,
252,0.4921875,7,212.0,,,
253,0.494140625,7,205.0,,,
254,0.49609375,7,214.0,,,
255,0.498046875,7,194.0,,,
256,0.5,8,137.0,,,
257,0.501953125,8,128.0,,,
258,0.50390625,8,162.0,,,
259,0.505859375,8,112.0,,,
260,0.5078125,8,1.0,,,
261,0.509765625,8,-43.0,,,
262,0.51171875,8,-6.0,,,
263,0.513671875,8,36.0,,,
264,0.515625,8,42.0,,,
265,0.517578125,8,43.0,,,
266,0.51953125,8,51.0,,,
267,0.521484375,8,68.0,,,
268,0.5234375,8,112.0,,,
269,0.525390625,8,161.0,,,
270,0.52734375,8,164.0,,,
271,0.529296875,8,145.0,,,
272,0.53125,8,128.0,,,
273,0.533203125,8,146.0,,,
274,0.53515625,8,177.0,,,
275,0.537109375,8,209.0,,,
276,0.5390625,8,228.0,,,
277,0.541015625,8,220.0,,,
278,0.54296875,8,212.0,,,
279,0.544921875,8,230.0,,,
280,0.546875,8,257.0,,,
281,0.548828125,8,282.0,,,
282,0.55078125,8,325.0,,,
283,0.552734375,8,347.0,,,
284,0.5546875,8,308.0,,,
285,0.556640625,8,265.0,,,
286,0.55859375,8,284.0,,,
287,0.560546875,8,343.0,,,
288,0.5625,9,368.0,,,
289,0.564453125,9,314.0,,,
290,0.56640625,9,225.0,,,
291,0.568359375,9,147.0,,,
292,0.5703125,9,102.0,,,
293,0.572265625,9,73.0,,,
294,0.57421875,9,58.0,,,
295,0.576171875,9,69.0,,,
296,0.578125,9,100.0,,,
297,0.580078125,9,140.0,,,
298,0.58203125,9,179.0,,,
299,0.583984375,9,187.0,,,
300,0.5859375,9,182.0,,,
301,0.587890625,9,203.0,,,
302,0.58984375,9,244.0,,,
303,0.591796875,9,259.0,,,
304,0.59375,9,236.0,,,
305,0.595703125,9,201.0,,,
306,0.59765625,9,186.0,,,
307,0.599609375,9,204.0,,,
308,0.6015625,9,228.0,,,
309,0.603515625,9,247.0,,,
310,0.60546875,9,252.0,,,
311,0.607421875,9,248.0,,,
312,0.609375,9,249.0,,,
313,0.611328125,9,258.0,,,
314,0.61328125,9,244.0,,,
315,0.615234375,9,233.0,,,
316,0.6171875,9,256.0,,,
317,0.619140625,9,265.0,,,
318,0.62109375,9,231.0,,,
319,0.623046875,9,193.0,,,
320,0.625,10,193.0,,,
321,0.626953125,10,198.0,,,
322,0.62890625,10,198.0,,,
323,0.630859375,10,197.0,,,
324,0.6328125,10,199.0,,,
325,0.634765625,10,195.0,,,
326,0.63671875,10,180.0,,,
327,0.638671875,10,177.0,,,
328,0.640625,10,202.0,,,
329,0.642578125,10,224.0,,,
330,0.64453125,10,225.0,,,
331,0.646484375,10,178.0,,,
332,0.6484375,10,122.0,,,
333,0.650390625,10,102.0,,,
334,0.65234375,10,112.0,,,
335,0.654296875,10,121.0,,,
336,0.65625,10,101.0,,,
337,0.658203125,10,50.0,,,
338,0.66015625,10,18.0,,,
339,0.662109375,10,12.0,,,
340,0.6640625,10,12.0,,,
341,0.666015625,10,27.0,,,
342,0.66796875,10,39.0,,,
343,0.669921875,10,49.0,,,
344,0.671875,10,76.0,,,
345,0.673828125,10,104.0,,,
346,0.67578125,10,103.0,,,
347,0.677734375,10,107.0,,,
348,0.6796875,10,116.0,,,
349,0.681640625,10,113.0,,,
350,0.68359375,10,97.0,,,
351,0.685546875,10,74.0,,,
352,0.6875,11,38.0,,,
353,0.689453125,11,22.0,,,
354,0.69140625,11,24.0,,,
355,0.693359375,11,11.0,,,
356,0.6953125,11,-1.0,,,
357,0.697265625,11,7.0,,,
358,0.69921875,11,44.0,,,
359,0.701171875,11,81.0,,,
360,0.703125,11,91.0,,,
361,0.705078125,11,82.0,,,
362,0.70703125,11,71.0,,,
363,0.708984375,11,68.0,,,
364,0.7109375,11,75.0,,,
365,0.712890625,11,86.0,,,
366,0.71484375,11,85.0,,,
367,0.716796875,11,77.0,,,
368,0.71875,11,64.0,,,
369,0.720703125,11,70.0,,,
370,0.72265625,11,103.0,,,
371,0.724609375,11,132.0,,,
372,0.7265625,11,130.0,,,
373,0.728515625,11,103.0,,,
374,0.73046875,11,88.0,,,
375,0.732421875,11,74.0,,,
376,0.734375,11,18.0,,,
377,0.736328125,11,-45.0,,,
378,0.73828125,11,-67.0,,,
379,0.740234375,11,-44.0,,,
380,0.7421875,11,-33.0,,,
381,0.744140625,11,-43.0,,,
382,0.74609375,11,-40.0,,,
383,0.748046875,11,-9.0,,,
384,0.75,12,34.0,,,
385,0.751953125,12,60.0,,,
386,0.75390625,12,59.0,,,
387,0.755859375,12,39.0,,,
388,0.7578125,12,4.0,,,
389,0.759765625,12,-21.0,,,
390,0.76171875,12,-27.0,,,
391,0.763671875,12,-23.0,,,
392,0.765625,12,-11.0,,,
393,0.767578125,12,-2.0,,,
394,0.76953125,12,-18.0,,,
395,0.771484375,12,-52.0,,,
396,0.7734375,12,-73.0,,,
397,0.775390625,12,-74.0,,,
398,0.77734375,12,-59.0,,,
399,0.779296875,12,-53.0,,,
400,0.78125,12,-38.0,,,
401,0.783203125,12,-12.0,,,
402,0.78515625,12,-11.0,,,
403,0.787109375,12,-24.0,,,
404,0.7890625,12,-8.0,,,
405,0.791015625,12,11.0,,,
406,0.79296875,12,8.0,,,
407,0.794921875,12,10.0,,,
408,0.796875,12,44.0,,,
409,0.798828125,12,70.0,,,
410,0.80078125,12,76.0,,,
411,0.802734375,12,59.0,,,
412,0.8046875,12,16.0,,,
413,0.806640625,12,-5.0,,,
414,0.80859375,12,-6.0,,,
415,0.810546875,12,-34.0,,,
416,0.8125,13,-57.0,,,
417,0.814453125,13,-56.0,,,
418,0.81640625,13,-35.0,,,
419,0.818359375,13,-8.0,,,
420,0.8203125,13,6.0,,,
421,0.822265625,13,28.0,,,
422,0.82421875,13,73.0,,,
423,0.826171875,13,134.0,,,
424,0.828125,13,164.0,,,
425,0.830078125,13,163.0,,,
426,0.83203125,13,149.0,,,
427,0.833984375,13,144.0,,,
428,0.8359375,13,133.0,,,
429,0.837890625,13,105.0,,,
430,0.83984375,13,75.0,,,
431,0.841796875,13,55.0,,,
432,0.84375,13,26.0,,,
433,0.845703125,13,20.0,,,
434,0.84765625,13,32.0,,,
435,0.849609375,13,48.0,,,
436,0.8515625,13,57.0,,,
437,0.853515625,13,70.0,,,
438,0.85546875,13,100.0,,,
439,0.857421875,13,121.0,,,
440,0.859375,13,96.0,,,
441,0.861328125,13,34.0,,,
442,0.86328125,13,-28.0,,,
443,0.865234375,13,-93.0,,,
444,0.8671875,13,-125.0,,,
445,0.869140625,13,-116.0,,,
446,0.87109375,13,-76.0,,,
447,0.873046875,13,-12.0,,,
448,0.875,14,64.0,,,
449,0.876953125,14,97.0,,,
450,0.87890625,14,74.0,,,
451,0.880859375,14,44.0,,,
452,0.8828125,14,71.0,,,
453,0.884765625,14,137.0,,,
454,0.88671875,14,197.0,,,
455,0.888671875,14,208.0,,,
456,0.890625,14,176.0,,,
457,0.892578125,14,150.0,,,
458,0.89453125,14,183.0,,,
459,0.896484375,14,235.0,,,
460,0.8984375,14,295.0,,,
461,0.900390625,14,338.0,,,
462,0.90234375,14,338.0,,,
463,0.904296875,14,316.0,,,
464,0.90625,14,322.0,,,
465,0.908203125,14,352.0,,,
466,0.91015625,14,384.0,,,
467,0.912109375,14,386.0,,,
468,0.9140625,14,364.0,,,
469,0.916015625,14,320.0,,,
470,0.91796875,14,252.0,,,
471,0.919921875,14,200.0,,,
472,0.921875,14,171.0,,,
473,0.923828125,14,186.0,,,
474,0.92578125,14,215.0,,,
475,0.927734375,14,229.0,,,
476,0.9296875,14,236.0,,,
477,0.931640625,14,252.0,,,
478,0.93359375,14,234.0,,,
479,0.935546875,14,165.0,,,
480,0.9375,15,101.0,,,
481,0.939453125,15,80.0,,,
482,0.94140625,15,68.0,,,
483,0.943359375,15,45.0,,,
484,0.9453125,15,4.0,,,
485,0.947265625,15,-35.0,,,
486,0.94921875,15,-52.0,,,
487,0.951171875,15,-94.0,,,
488,0.953125,15,-142.0,,,
489,0.955078125,15,-154.0,,,
490,0.95703125,15,-164.0,,,
491,0.958984375,15,-182.0,,,
492,0.9609375,15,-212.0,,,
493,0.962890625,15,-257.0,,,
494,0.96484375,15,-295.0,,,
495,0.966796875,15,-347.0,,,
496,0.96875,15,-382.0,,,
497,0.970703125,15,-379.0,,,
498,0.97265625,15,-373.0,,,
499,0.974609375,15,-386.0,,,
500,0.9765625,15,-413.0,,,
501,0.978515625,15,-422.0,,,
502,0.98046875,15,-378.0,,,
503,0.982421875,15,-353.0,,,
504,0.984375,15,-314.0,,,
505,0.986328125,15,-264.0,,,
506,0.98828125,15,-244.0,,,
507,0.990234375,15,-286.0,,,
508,0.9921875,15,-348.0,,,
509,0.994140625,15,-393.0,,,
510,0.99609375,15,-396.0,,,
511,0.998046875,15,-361.0,,,
512,1.0,16,-349.0,,,
513,1.001953125,16,-378.0,,,
514,1.00390625,16,-405.0,,,
515,1.005859375,16,-412.0,,,
516,1.0078125,16,-455.0,,,
517,1.009765625,16,-478.0,,,
518,1.01171875,16,-422.0,,,
519,1.013671875,16,-364.0,,,
520,1.015625,16,-358.0,,,
521,1.017578125,16,-353.0,,,
522,1.01953125,16,-340.0,,,
523,1.021484375,16,-345.0,,,
524,1.0234375,16,-366.0,,,
525,1.025390625,16,-381.0,,,
526,1.02734375,16,-390.0,,,
527,1.029296875,16,-404.0,,,
528,1.03125,16,-450.0,,,
529,1.033203125,16,-475.0,,,
530,1.03515625,16,-441.0,,,
531,1.037109375,16,-370.0,,,
532,1.0390625,16,-299.0,,,
533,1.041015625,16,-268.0,,,
534,1.04296875,16,-278.0,,,
535,1.044921875,16,-260.0,,,
536,1.046875,16,-195.0,,,
537,1.048828125,16,-126.0,,,
538,1.05078125,16,-91.0,,,
539,1.052734375,16,-67.0,,,
540,1.0546875,16,-28.0,,,
541,1.056640625,16,24.0,,,
542,1.05859375,16,70.0,,,
543,1.060546875,16,77.0,,,
544,1.0625,17,57.0,,,
545,1.064453125,17,40.0,,,
546,1.06640625,17,24.0,,,
547,1.068359375,17,11.0,,,
548,1.0703125,17,-9.0,,,
549,1.072265625,17,-23.0,,,
550,1.07421875,17,9.0,,,
551,1.076171875,17,60.0,,,
552,1.078125,17,123.0,,,
553,1.080078125,17,210.0,,,
554,1.08203125,17,235.0,,,
555,1.083984375,17,243.0,,,
556,1.0859375,17,252.0,,,
557,1.087890625,17,268.0,,,
558,1.08984375,17,281.0,,,
559,1.091796875,17,265.0,,,
560,1.09375,17,272.0,,,
561,1.095703125,17,281.0,,,
562,1.09765625,17,268.0,,,
563,1.099609375,17,268.0,,,
564,1.1015625,17,283.0,,,
565,1.103515625,17,296.0,,,
566,1.10546875,17,314.0,,,
567,1.107421875,17,297.0,,,
568,1.109375,17,277.0,,,
569,1.111328125,17,257.0,,,
570,1.11328125,17,216.0,,,
571,1.115234375,17,201.0,,,
572,1.1171875,17,214.0,,,
573,1.119140625,17,236.0,,,
574,1.12109375,17,244.0,,,
575,1.123046875,17,243.0,,,
576,1.125,18,269.0,,,
577,1.126953125,18,317.0,,,
578,1.12890625,18,331.0,,,
579,1.130859375,18,315.0,,,
580,1.1328125,18,294.0,,,
581,1.134765625,18,275.0,,,
582,1.13671875,18,243.0,,,
583,1.138671875,18,203.0,,,
584,1.140625,18,173.0,,,
585,1.142578125,18,154.0,,,
586,1.14453125,18,134.0,,,
587,1.146484375,18,106.0,,,
588,1.1484375,18,86.0,,,
589,1.150390625,18,102.0,,,
590,1.15234375,18,116.0,,,
591,1.154296875,18,101.0,,,
592,1.15625,18,77.0,,,
593,1.158203125,18,55.0,,,
594,1.16015625,18,51.0,,,
595,1.162109375,18,61.0,,,
596,1.1640625,18,89.0,,,
597,1.166015625,18,134.0,,,
598,1.16796875,18,153.0,,,
599,1.169921875,18,122.0,,,
600,1.171875,18,112.0,,,
601,1.173828125,18,155.0,,,
602,1.17578125,18,186.0,,,
603,1.177734375,18,169.0,,,
604,1.1796875,18,140.0,,,
605,1.181640625,18,134.0,,,
606,1.18359375,18,122.0,,,
607,1.185546875,18,82.0,,,
608,1.1875,19,39.0,,,
609,1.189453125,19,35.0,,,
610,1.19140625,19,54.0,,,
611,1.193359375,19,54.0,,,
612,1.1953125,19,42.0,,,
613,1.197265625,19,24.0,,,
614,1.19921875,19,-9.0,,,
615,1.201171875,19,-57.0,,,
616,1.203125,19,-53.0,,,
617,1.205078125,19,-9.0,,,
618,1.20703125,19,18.0,,,
619,1.208984375,19,2.0,,,
620,1.2109375,19,-39.0,,,
621,1.212890625,19,-93.0,,,
622,1.21484375,19,-116.0,,,
623,1.216796875,19,-106.0,,,
624,1.21875,19,-97.0,,,
625,1.220703125,19,-73.0,,,
626,1.22265625,19,-27.0,,,
627,1.224609375,19,24.0,,,
628,1.2265625,19,34.0,,,
629,1.228515625,19,25.0,,,
630,1.23046875,19,7.0,,,
631,1.232421875,19,8.0,,,
632,1.234375,19,1.0,,,
633,1.236328125,19,-34.0,,,
634,1.23828125,19,-77.0,,,
635,1.240234375,19,-116.0,,,
636,1.2421875,19,-157.0,,,
637,1.244140625,19,-138.0,,,
638,1.24609375,19,-61.0,,,
639,1.248046875,19,5.0,,,
640,1.25,20,59.0,,,
641,1.251953125,20,72.0,,,
642,1.25390625,20,55.0,,,
643,1.255859375,20,65.0,,,
644,1.2578125,20,65.0,,,
645,1.259765625,20,28.0,,,
646,1.26171875,20,-13.0,,,
647,1.263671875,20,-38.0,,,
648,1.265625,20,-23.0,,,
649,1.267578125,20,-9.0,,,
650,1.26953125,20,8.0,,,
651,1.271484375,20,33.0,,,
652,1.2734375,20,42.0,,,
653,1.275390625,20,13.0,,,
654,1.27734375,20,-21.0,,,
655,1.279296875,20,-39.0,,,
656,1.28125,20,-39.0,,,
657,1.283203125,20,-22.0,,,
658,1.28515625,20,-20.0,,,
659,1.287109375,20,-35.0,,,
660,1.2890625,20,-72.0,,,
661,1.291015625,20,-108.0,,,
662,1.29296875,20,-110.0,,,
663,1.294921875,20,-68.0,,,
664,1.296875,20,-6.0,,,
665,1.298828125,20,32.0,,,
666,1.30078125,20,22.0,,,
667,1.302734375,20,-3.0,,,
668,1.3046875,20,5.0,,,
669,1.306640625,20,24.0,,,
670,1.30859375,20,11.0,,,
671,1.310546875,20,-6.0,,,
672,1.3125,21,1.0,,,
673,1.314453125,21,-1.0,,,
674,1.31640625,21,-27.0,,,
675,1.318359375,21,-8.0,,,
676,1.3203125,21,33.0,,,
677,1.322265625,21,64.0,,,
678,1.32421875,21,86.0,,,
679,1.326171875,21,99.0,,,
680,1.328125,21,99.0,,,
681,1.330078125,21,96.0,,,
682,1.33203125,21,85.0,,,
683,1.333984375,21,71.0,,,
684,1.3359375,21,75.0,,,
685,1.337890625,21,90.0,,,
686,1.33984375,21,100.0,,,
687,1.341796875,21,92.0,,,
688,1.34375,21,93.0,,,
689,1.345703125,21,86.0,,,
690,1.34765625,21,89.0,,,
691,1.349609375,21,114.0,,,
692,1.3515625,21,117.0,,,
693,1.353515625,21,73.0,,,
694,1.35546875,21,-22.0,,,
695,1.357421875,21,-62.0,,,
696,1.359375,21,-50.0,,,
697,1.361328125,21,-66.0,,,
698,1.36328125,21,-81.0,,,
699,1.365234375,21,-89.0,,,
700,1.3671875,21,-87.0,,,
701,1.369140625,21,-46.0,,,
702,1.37109375,21,-2.0,,,
703,1.373046875,21,9.0,,,
704,1.375,22,-22.0,,,
705,1.376953125,22,-23.0,,,
706,1.37890625,22,16.0,,,
707,1.380859375,22,28.0,,,
708,1.3828125,22,-2.0,,,
709,1.384765625,22,-29.0,,,
710,1.38671875,22,6.0,,,
711,1.388671875,22,74.0,,,
712,1.390625,22,131.0,,,
713,1.392578125,22,165.0,33553.0,1.392578125,0.001953125
714,1.39453125,22,165.0,33554.0,1.39453125,0.0
715,1.396484375,22,172.0,,,
716,1.3984375,22,167.0,,,
717,1.400390625,22,171.0,,,
718,1.40234375,22,173.0,,,
719,1.404296875,22,161.0,,,
720,1.40625,22,128.0,,,
721,1.408203125,22,97.0,,,
722,1.41015625,22,82.0,,,
723,1.412109375,22,66.0,,,
724,1.4140625,22,41.0,,,
725,1.416015625,22,22.0,,,
726,1.41796875,22,35.0,,,
727,1.419921875,22,41.0,,,
728,1.421875,22,9.0,,,
729,1.423828125,22,-9.0,,,
730,1.42578125,22,1.0,,,
731,1.427734375,22,9.0,,,
732,1.4296875,22,3.0,,,
733,1.431640625,22,-23.0,,,
734,1.43359375,22,-66.0,,,
735,1.435546875,22,-92.0,,,
736,1.4375,23,-103.0,,,
737,1.439453125,23,-98.0,,,
738,1.44140625,23,-71.0,,,
739,1.443359375,23,-22.0,,,
740,1.4453125,23,16.0,,,
741,1.447265625,23,42.0,,,
742,1.44921875,23,74.0,,,
743,1.451171875,23,116.0,,,
744,1.453125,23,125.0,,,
745,1.455078125,23,86.0,,,
746,1.45703125,23,45.0,,,
747,1.458984375,23,8.0,,,
748,1.4609375,23,-17.0,,,
749,1.462890625,23,-50.0,,,
750,1.46484375,23,-88.0,,,
751,1.466796875,23,-108.0,,,
752,1.46875,23,-100.0,,,
753,1.470703125,23,-69.0,,,
754,1.47265625,23,0.0,,,
755,1.474609375,23,56.0,,,
756,1.4765625,23,80.0,,,
757,1.478515625,23,130.0,,,
758,1.48046875,23,195.0,,,
759,1.482421875,23,237.0,,,
760,1.484375,23,246.0,,,
761,1.486328125,23,237.0,,,
762,1.48828125,23,226.0,,,
763,1.490234375,23,210.0,,,
764,1.4921875,23,208.0,,,
765,1.494140625,23,228.0,,,
766,1.49609375,23,258.0,,,
767,1.498046875,23,266.0,,,
768,1.5,24,276.0,,,
769,1.501953125,24,293.0,,,
770,1.50390625,24,280.0,,,
771,1.505859375,24,249.0,,,
772,1.5078125,24,257.0,,,
773,1.509765625,24,257.0,,,
774,1.51171875,24,229.0,,,
775,1.513671875,24,210.0,,,
776,1.515625,24,230.0,,,
777,1.517578125,24,283.0,,,
778,1.51953125,24,317.0,,,
779,1.521484375,24,320.0,,,
780,1.5234375,24,282.0,,,
781,1.525390625,24,214.0,,,
782,1.52734375,24,166.0,,,
783,1.529296875,24,165.0,,,
784,1.53125,24,168.0,,,
785,1.533203125,24,137.0,,,
786,1.53515625,24,117.0,,,
787,1.537109375,24,130.0,,,
788,1.5390625,24,144.0,,,
789,1.541015625,24,168.0,,,
790,1.54296875,24,221.0,,,
791,1.544921875,24,240.0,,,
792,1.546875,24,211.0,,,
793,1.548828125,24,184.0,,,
794,1.55078125,24,155.0,,,
795,1.552734375,24,132.0,,,
796,1.5546875,24,107.0,,,
797,1.556640625,24,98.0,,,
798,1.55859375,24,103.0,,,
799,1.560546875,24,117.0,,,
800,1.5625,25,161.0,,,
801,1.564453125,25,203.0,,,
802,1.56640625,25,204.0,,,
803,1.568359375,25,145.0,,,
804,1.5703125,25,97.0,,,
805,1.572265625,25,114.0,,,
806,1.57421875,25,161.0,,,
807,1.576171875,25,166.0,,,
808,1.578125,25,116.0,,,
809,1.580078125,25,103.0,,,
810,1.58203125,25,122.0,,,
811,1.583984375,25,70.0,,,
812,1.5859375,25,0.0,,,
813,1.587890625,25,8.0,,,
814,1.58984375,25,59.0,,,
815,1.591796875,25,84.0,,,
816,1.59375,25,34.0,,,
817,1.595703125,25,-14.0,,,
818,1.59765625,25,-9.0,,,
819,1.599609375,25,22.0,,,
820,1.6015625,25,58.0,,,
821,1.603515625,25,96.0,,,
822,1.60546875,25,82.0,,,
823,1.607421875,25,4.0,,,
824,1.609375,25,-38.0,,,
825,1.611328125,25,-1.0,,,
826,1.61328125,25,53.0,,,
827,1.615234375,25,70.0,,,
828,1.6171875,25,66.0,,,
829,1.619140625,25,68.0,,,
830,1.62109375,25,97.0,,,
831,1.623046875,25,98.0,,,
832,1.625,26,82.0,,,
833,1.626953125,26,67.0,,,
834,1.62890625,26,41.0,,,
835,1.630859375,26,25.0,,,
836,1.6328125,26,28.0,,,
837,1.634765625,26,32.0,,,
838,1.63671875,26,19.0,,,
839,1.638671875,26,-13.0,,,
840,1.640625,26,-27.0,,,
841,1.642578125,26,-8.0,,,
842,1.64453125,26,22.0,,,
843,1.646484375,26,12.0,,,
844,1.6484375,26,-44.0,,,
845,1.650390625,26,-74.0,,,
846,1.65234375,26,-44.0,,,
847,1.654296875,26,-25.0,,,
848,1.65625,26,-52.0,,,
849,1.658203125,26,-76.0,,,
850,1.66015625,26,-66.0,,,
851,1.662109375,26,-23.0,,,
852,1.6640625,26,11.0,,,
853,1.666015625,26,9.0,,,
854,1.66796875,26,-24.0,,,
855,1.669921875,26,-25.0,,,
856,1.671875,26,22.0,,,
857,1.673828125,26,39.0,,,
858,1.67578125,26,2.0,,,
859,1.677734375,26,-43.0,,,
860,1.6796875,26,-65.0,,,
861,1.681640625,26,-52.0,,,
862,1.68359375,26,-26.0,,,
863,1.685546875,26,-5.0,,,
864,1.6875,27,2.0,,,
865,1.689453125,27,-9.0,,,
866,1.69140625,27,-40.0,,,
867,1.693359375,27,-71.0,,,
868,1.6953125,27,-69.0,,,
869,1.697265625,27,-73.0,,,
870,1.69921875,27,-107.0,,,
871,1.701171875,27,-118.0,,,
872,1.703125,27,-92.0,,,
873,1.705078125,27,-44.0,,,
874,1.70703125,27,11.0,,,
875,1.708984375,27,60.0,,,
876,1.7109375,27,88.0,,,
877,1.712890625,27,91.0,,,
878,1.71484375,27,76.0,,,
879,1.716796875,27,73.0,,,
880,1.71875,27,84.0,,,
881,1.720703125,27,74.0,,,
882,1.72265625,27,66.0,,,
883,1.724609375,27,54.0,,,
884,1.7265625,27,56.0,,,
885,1.728515625,27,73.0,,,
886,1.73046875,27,87.0,,,
887,1.732421875,27,132.0,,,
888,1.734375,27,176.0,,,
889,1.736328125,27,157.0,,,
890,1.73828125,27,91.0,,,
891,1.740234375,27,70.0,,,
892,1.7421875,27,103.0,,,
893,1.744140625,27,120.0,,,
894,1.74609375,27,115.0,,,
895,1.748046875,27,115.0,,,
896,1.75,28,88.0,,,
897,1.751953125,28,53.0,,,
898,1.75390625,28,49.0,,,
899,1.755859375,28,37.0,,,
900,1.7578125,28,18.0,,,
901,1.759765625,28,32.0,,,
902,1.76171875,28,44.0,,,
903,1.763671875,28,1.0,,,
904,1.765625,28,-28.0,,,
905,1.767578125,28,-42.0,,,
906,1.76953125,28,-28.0,,,
907,1.771484375,28,-14.0,,,
908,1.7734375,28,-11.0,,,
909,1.775390625,28,-21.0,,,
910,1.77734375,28,-12.0,,,
911,1.779296875,28,25.0,,,
912,1.78125,28,41.0,,,
913,1.783203125,28,28.0,,,
914,1.78515625,28,26.0,,,
915,1.787109375,28,41.0,,,
916,1.7890625,28,41.0,,,
917,1.791015625,28,26.0,,,
918,1.79296875,28,10.0,,,
919,1.794921875,28,6.0,,,
920,1.796875,28,4.0,,,
921,1.798828125,28,6.0,,,
922,1.80078125,28,41.0,,,
923,1.802734375,28,56.0,,,
924,1.8046875,28,24.0,,,
925,1.806640625,28,5.0,,,
926,1.80859375,28,3.0,,,
927,1.810546875,28,2.0,,,
928,1.8125,29,-8.0,,,
929,1.814453125,29,-50.0,,,
930,1.81640625,29,-88.0,,,
931,1.818359375,29,-88.0,,,
932,1.8203125,29,-54.0,,,
933,1.822265625,29,-14.0,,,
934,1.82421875,29,-30.0,,,
935,1.826171875,29,-92.0,,,
936,1.828125,29,-126.0,,,
937,1.830078125,29,-106.0,,,
938,1.83203125,29,-52.0,,,
939,1.833984375,29,-10.0,,,
940,1.8359375,29,-20.0,,,
941,1.837890625,29,-49.0,,,
942,1.83984375,29,-59.0,,,
943,1.841796875,29,-65.0,,,
944,1.84375,29,-90.0,,,
945,1.845703125,29,-114.0,,,
946,1.84765625,29,-103.0,,,
947,1.849609375,29,-71.0,,,
948,1.8515625,29,-67.0,,,
949,1.853515625,29,-83.0,,,
950,1.85546875,29,-69.0,,,
951,1.857421875,29,-49.0,,,
952,1.859375,29,-37.0,,,
953,1.861328125,29,-50.0,,,
954,1.86328125,29,-50.0,,,
955,1.865234375,29,-30.0,,,
956,1.8671875,29,-21.0,,,
957,1.869140625,29,-37.0,,,
958,1.87109375,29,-73.0,,,
959,1.873046875,29,-59.0,,,
960,1.875,30,-1.0,,,
961,1.876953125,30,52.0,,,
962,1.87890625,30,70.0,,,
963,1.880859375,30,77.0,,,
964,1.8828125,30,88.0,,,
965,1.884765625,30,74.0,,,
966,1.88671875,30,73.0,,,
967,1.888671875,30,83.0,,,
968,1.890625,30,97.0,,,
969,1.892578125,30,100.0,,,
970,1.89453125,30,68.0,,,
971,1.896484375,30,66.0,,,
972,1.8984375,30,107.0,,,
973,1.900390625,30,132.0,,,
974,1.90234375,30,129.0,,,
975,1.904296875,30,124.0,,,
976,1.90625,30,108.0,,,
977,1.908203125,30,90.0,,,
978,1.91015625,30,104.0,,,
979,1.912109375,30,117.0,,,
980,1.9140625,30,109.0,,,
981,1.916015625,30,86.0,,,
982,1.91796875,30,70.0,,,
983,1.919921875,30,58.0,,,
984,1.921875,30,33.0,,,
985,1.923828125,30,37.0,,,
986,1.92578125,30,60.0,,,
987,1.927734375,30,99.0,,,
988,1.9296875,30,116.0,,,
989,1.931640625,30,81.0,,,
990,1.93359375,30,42.0,,,
991,1.935546875,30,24.0,,,
992,1.9375,31,38.0,,,
993,1.939453125,31,66.0,,,
994,1.94140625,31,70.0,,,
995,1.943359375,31,56.0,,,
996,1.9453125,31,44.0,,,
997,1.947265625,31,38.0,,,
998,1.94921875,31,17.0,,,
999,1.951171875,31,-17.0,,,
1000,1.953125,31,-41.0,,,
1001,1.955078125,31,-43.0,,,
1002,1.95703125,31,-39.0,,,
1003,1.958984375,31,-19.0,,,
1004,1.9609375,31,-13.0,,,
1005,1.962890625,31,-39.0,,,
1006,1.96484375,31,-43.0,,,
1007,1.966796875,31,4.0,,,
1008,1.96875,31,52.0,,,
1009,1.970703125,31,59.0,,,
1010,1.97265625,31,57.0,,,
1011,1.974609375,31,54.0,,,
1012,1.9765625,31,49.0,,,
1013,1.978515625,31,49.0,,,
1014,1.98046875,31,61.0,,,
1015,1.982421875,31,92.0,,,
1016,1.984375,31,107.0,,,
1017,1.986328125,31,60.0,,,
1018,1.98828125,31,6.0,,,
1019,1.990234375,31,4.0,,,
1020,1.9921875,31,52.0,,,
1021,1.994140625,31,109.0,,,
1022,1.99609375,31,117.0,,,
1023,1.998046875,31,57.0,,,
1024,2.0,32,-26.0,,,
1025,2.001953125,32,-37.0,,,
1026,2.00390625,32,19.0,,,
1027,2.005859375,32,72.0,,,
1028,2.0078125,32,134.0,,,
1029,2.009765625,32,149.0,,,
1030,2.01171875,32,77.0,,,
1031,2.013671875,32,33.0,,,
1032,2.015625,32,45.0,,,
1033,2.017578125,32,71.0,,,
1034,2.01953125,32,53.0,,,
1035,2.021484375,32,2.0,,,
1036,2.0234375,32,-44.0,,,
1037,2.025390625,32,-44.0,,,
1038,2.02734375,32,-11.0,,,
1039,2.029296875,32,-3.0,,,
1040,2.03125,32,10.0,,,
1041,2.033203125,32,57.0,,,
1042,2.03515625,32,99.0,,,
1043,2.037109375,32,86.0,,,
1044,2.0390625,32,58.0,,,
1045,2.041015625,32,55.0,,,
1046,2.04296875,32,71.0,,,
1047,2.044921875,32,48.0,,,
1048,2.046875,32,37.0,,,
1049,2.048828125,32,58.0,,,
1050,2.05078125,32,67.0,,,
1051,2.052734375,32,69.0,,,
1052,2.0546875,32,101.0,,,
1053,2.056640625,32,132.0,,,
1054,2.05859375,32,117.0,,,
1055,2.060546875,32,90.0,,,
1056,2.0625,33,85.0,,,
1057,2.064453125,33,87.0,,,
1058,2.06640625,33,83.0,,,
1059,2.068359375,33,80.0,,,
1060,2.0703125,33,53.0,,,
1061,2.072265625,33,8.0,,,
1062,2.07421875,33,-18.0,,,
1063,2.076171875,33,-13.0,,,
1064,2.078125,33,10.0,,,
1065,2.080078125,33,1.0,,,
1066,2.08203125,33,-50.0,,,
1067,2.083984375,33,-62.0,,,
1068,2.0859375,33,-26.0,,,
1069,2.087890625,33,-17.0,,,
1070,2.08984375,33,-28.0,,,
1071,2.091796875,33,-13.0,,,
1072,2.09375,33,-14.0,,,
1073,2.095703125,33,-30.0,,,
1074,2.09765625,33,-42.0,,,
1075,2.099609375,33,-8.0,,,
1076,2.1015625,33,33.0,,,
1077,2.103515625,33,2.0,,,
1078,2.10546875,33,-42.0,,,
1079,2.107421875,33,-33.0,,,
1080,2.109375,33,4.0,,,
1081,2.111328125,33,26.0,,,
1082,2.11328125,33,23.0,,,
1083,2.115234375,33,25.0,,,
1084,2.1171875,33,39.0,,,
1085,2.119140625,33,48.0,,,
1086,2.12109375,33,56.0,,,
1087,2.123046875,33,73.0,,,
1088,2.125,34,92.0,,,
1089,2.126953125,34,104.0,,,
1090,2.12890625,34,105.0,,,
1091,2.130859375,34,84.0,,,
1092,2.1328125,34,68.0,,,
1093,2.134765625,34,74.0,,,
1094,2.13671875,34,89.0,,,
1095,2.138671875,34,83.0,,,
1096,2.140625,34,81.0,,,
1097,2.142578125,34,100.0,,,
1098,2.14453125,34,96.0,,,
1099,2.146484375,34,74.0,,,
1100,2.1484375,34,90.0,,,
1101,2.150390625,34,128.0,,,
1102,2.15234375,34,136.0,,,
1103,2.154296875,34,124.0,,,
1104,2.15625,34,117.0,,,
1105,2.158203125,34,122.0,,,
1106,2.16015625,34,113.0,,,
1107,2.162109375,34,86.0,,,
1108,2.1640625,34,64.0,,,
1109,2.166015625,34,44.0,,,
1110,2.16796875,34,36.0,,,
1111,2.169921875,34,39.0,,,
1112,2.171875,34,23.0,,,
1113,2.173828125,34,-20.0,,,
1114,2.17578125,34,-38.0,,,
1115,2.177734375,34,-21.0,,,
1116,2.1796875,34,-8.0,,,
1117,2.181640625,34,2.0,,,
1118,2.18359375,34,24.0,,,
1119,2.185546875,34,8.0,,,
1120,2.1875,35,-30.0,,,
1121,2.189453125,35,-65.0,,,
1122,2.19140625,35,-61.0,,,
1123,2.193359375,35,-49.0,,,
1124,2.1953125,35,-24.0,,,
1125,2.197265625,35,-19.0,,,
1126,2.19921875,35,-33.0,,,
1127,2.201171875,35,-54.0,,,
1128,2.203125,35,-58.0,,,
1129,2.205078125,35,-34.0,,,
1130,2.20703125,35,6.0,,,
1131,2.208984375,35,43.0,,,
1132,2.2109375,35,21.0,,,
1133,2.212890625,35,-24.0,,,
1134,2.21484375,35,-33.0,,,
1135,2.216796875,35,-13.0,,,
1136,2.21875,35,11.0,,,
1137,2.220703125,35,32.0,,,
1138,2.22265625,35,56.0,,,
1139,2.224609375,35,73.0,,,
1140,2.2265625,35,60.0,,,
1141,2.228515625,35,57.0,,,
1142,2.23046875,35,72.0,,,
1143,2.232421875,35,64.0,,,
1144,2.234375,35,41.0,,,
1145,2.236328125,35,64.0,,,
1146,2.23828125,35,114.0,,,
1147,2.240234375,35,82.0,,,
1148,2.2421875,35,-5.0,,,
1149,2.244140625,35,-42.0,,,
1150,2.24609375,35,2.0,,,
1151,2.248046875,35,68.0,,,
1152,2.25,36,113.0,,,
1153,2.251953125,36,115.0,,,
1154,2.25390625,36,90.0,,,
1155,2.255859375,36,80.0,,,
1156,2.2578125,36,107.0,,,
1157,2.259765625,36,119.0,,,
1158,2.26171875,36,107.0,,,
1159,2.263671875,36,73.0,,,
1160,2.265625,36,35.0,,,
1161,2.267578125,36,37.0,,,
1162,2.26953125,36,48.0,,,
1163,2.271484375,36,35.0,,,
1164,2.2734375,36,18.0,,,
1165,2.275390625,36,-6.0,,,
1166,2.27734375,36,-8.0,,,
1167,2.279296875,36,60.0,,,
1168,2.28125,36,117.0,,,
1169,2.283203125,36,92.0,,,
1170,2.28515625,36,41.0,,,
1171,2.287109375,36,24.0,,,
1172,2.2890625,36,37.0,,,
1173,2.291015625,36,65.0,,,
1174,2.29296875,36,82.0,,,
1175,2.294921875,36,67.0,,,
1176,2.296875,36,26.0,,,
1177,2.298828125,36,11.0,,,
1178,2.30078125,36,19.0,,,
1179,2.302734375,36,13.0,,,
1180,2.3046875,36,-33.0,,,
1181,2.306640625,36,-91.0,,,
1182,2.30859375,36,-106.0,,,
1183,2.310546875,36,-85.0,,,
1184,2.3125,37,-61.0,,,
1185,2.314453125,37,-50.0,,,
1186,2.31640625,37,-43.0,,,
1187,2.318359375,37,-34.0,,,
1188,2.3203125,37,-6.0,,,
1189,2.322265625,37,4.0,,,
1190,2.32421875,37,-35.0,,,
1191,2.326171875,37,-68.0,,,
1192,2.328125,37,-69.0,,,
1193,2.330078125,37,-89.0,,,
1194,2.33203125,37,-115.0,,,
1195,2.333984375,37,-108.0,,,
1196,2.3359375,37,-86.0,,,
1197,2.337890625,37,-54.0,,,
1198,2.33984375,37,-24.0,,,
1199,2.341796875,37,3.0,,,
1200,2.34375,37,43.0,,,
1201,2.345703125,37,34.0,,,
1202,2.34765625,37,1.0,,,
1203,2.349609375,37,-17.0,,,
1204,2.3515625,37,-39.0,,,
1205,2.353515625,37,-53.0,,,
1206,2.35546875,37,-70.0,,,
1207,2.357421875,37,-88.0,,,
1208,2.359375,37,-68.0,,,
1209,2.361328125,37,3.0,,,
1210,2.36328125,37,50.0,,,
1211,2.365234375,37,26.0,,,
1212,2.3671875,37,-20.0,,,
1213,2.369140625,37,-54.0,,,
1214,2.37109375,37,-29.0,,,
1215,2.373046875,37,2.0,,,
1216,2.375,38,11.0,,,
1217,2.376953125,38,-1.0,,,
1218,2.37890625,38,-23.0,,,
1219,2.380859375,38,-10.0,,,
1220,2.3828125,38,50.0,,,
1221,2.384765625,38,83.0,,,
1222,2.38671875,38,66.0,,,
1223,2.388671875,38,44.0,,,
1224,2.390625,38,59.0,,,
1225,2.392578125,38,86.0,,,
1226,2.39453125,38,71.0,,,
1227,2.396484375,38,69.0,,,
1228,2.3984375,38,65.0,,,
1229,2.400390625,38,-5.0,,,
1230,2.40234375,38,-17.0,,,
1231,2.404296875,38,59.0,,,
1232,2.40625,38,116.0,,,
1233,2.408203125,38,108.0,,,
1234,2.41015625,38,85.0,,,
1235,2.412109375,38,80.0,,,
1236,2.4140625,38,96.0,,,
1237,2.416015625,38,123.0,,,
1238,2.41796875,38,161.0,,,
1239,2.419921875,38,177.0,,,
1240,2.421875,38,156.0,,,
1241,2.423828125,38,118.0,,,
1242,2.42578125,38,83.0,,,
1243,2.427734375,38,71.0,,,
1244,2.4296875,38,91.0,,,
1245,2.431640625,38,100.0,,,
1246,2.43359375,38,82.0,,,
1247,2.435546875,38,61.0,,,
1248,2.4375,39,50.0,,,
1249,2.439453125,39,50.0,,,
1250,2.44140625,39,61.0,,,
1251,2.443359375,39,34.0,,,
1252,2.4453125,39,-30.0,,,
1253,2.447265625,39,-41.0,,,
1254,2.44921875,39,10.0,,,
1255,2.451171875,39,50.0,,,
1256,2.453125,39,100.0,,,
1257,2.455078125,39,137.0,,,
1258,2.45703125,39,6.0,33552.0,2.45703125,0.0
1259,2.458984375,39,1.0,,,
1260,2.4609375,39,35.0,,,
1261,2.462890625,39,48.0,,,
1262,2.46484375,39,17.0,,,
1263,2.466796875,39,-21.0,,,
1264,2.46875,39,-39.0,,,
1265,2.470703125,39,-8.0,,,
1266,2.47265625,39,38.0,,,
1267,2.474609375,39,69.0,,,
1268,2.4765625,39,88.0,,,
1269,2.478515625,39,105.0,,,
1270,2.48046875,39,113.0,,,
1271,2.482421875,39,112.0,,,
1272,2.484375,39,108.0,,,
1273,2.486328125,39,65.0,,,
1274,2.48828125,39,26.0,,,
1275,2.490234375,39,34.0,,,
1276,2.4921875,39,24.0,,,
1277,2.494140625,39,-7.0,,,
1278,2.49609375,39,-19.0,,,
1279,2.498046875,39,-6.0,,,
1280,2.5,40,9.0,,,
1281,2.501953125,40,7.0,,,
1282,2.50390625,40,26.0,,,
1283,2.505859375,40,106.0,,,
1284,2.5078125,40,115.0,,,
1285,2.509765625,40,28.0,,,
1286,2.51171875,40,10.0,,,
1287,2.513671875,40,75.0,,,
1288,2.515625,40,98.0,,,
1289,2.517578125,40,81.0,,,
1290,2.51953125,40,45.0,,,
1291,2.521484375,40,-1.0,,,
1292,2.5234375,40,-8.0,,,
1293,2.525390625,40,12.0,,,
1294,2.52734375,40,57.0,,,
1295,2.529296875,40,104.0,,,
1296,2.53125,40,93.0,,,
1297,2.533203125,40,50.0,,,
1298,2.53515625,40,21.0,,,
1299,2.537109375,40,23.0,,,
1300,2.5390625,40,55.0,,,
1301,2.541015625,40,100.0,,,
1302,2.54296875,40,92.0,,,
1303,2.544921875,40,59.0,,,
1304,2.546875,40,34.0,,,
1305,2.548828125,40,27.0,,,
1306,2.55078125,40,97.0,,,
1307,2.552734375,40,112.0,,,
1308,2.5546875,40,50.0,,,
1309,2.556640625,40,17.0,,,
1310,2.55859375,40,26.0,,,
1311,2.560546875,40,76.0,,,
1312,2.5625,41,98.0,,,
1313,2.564453125,41,65.0,,,
1314,2.56640625,41,87.0,,,
1315,2.568359375,41,103.0,,,
1316,2.5703125,41,77.0,,,
1317,2.572265625,41,58.0,,,
1318,2.57421875,41,70.0,,,
1319,2.576171875,41,114.0,,,
1320,2.578125,41,98.0,,,
1321,2.580078125,41,24.0,,,
1322,2.58203125,41,-4.0,,,
1323,2.583984375,41,82.0,,,
1324,2.5859375,41,130.0,,,
1325,2.587890625,41,103.0,,,
1326,2.58984375,41,136.0,,,
1327,2.591796875,41,140.0,,,
1328,2.59375,41,97.0,,,
1329,2.595703125,41,86.0,,,
1330,2.59765625,41,71.0,,,
1331,2.599609375,41,58.0,,,
1332,2.6015625,41,56.0,,,
1333,2.603515625,41,49.0,,,
1334,2.60546875,41,76.0,,,
1335,2.607421875,41,170.0,,,
1336,2.609375,41,233.0,,,
1337,2.611328125,41,193.0,,,
1338,2.61328125,41,133.0,,,
1339,2.615234375,41,98.0,,,
1340,2.6171875,41,67.0,,,
1341,2.619140625,41,64.0,,,
1342,2.62109375,41,87.0,,,
1343,2.623046875,41,61.0,,,
1344,2.625,42,12.0,,,
1345,2.626953125,42,25.0,,,
1346,2.62890625,42,119.0,,,
1347,2.630859375,42,194.0,,,
1348,2.6328125,42,170.0,,,
1349,2.634765625,42,101.0,,,
1350,2.63671875,42,65.0,,,
1351,2.638671875,42,84.0,,,
1352,2.640625,42,102.0,,,
1353,2.642578125,42,85.0,,,
1354,2.64453125,42,58.0,,,
1355,2.646484375,42,53.0,,,
1356,2.6484375,42,77.0,,,
1357,2.650390625,42,135.0,,,
1358,2.65234375,42,150.0,,,
1359,2.654296875,42,109.0,,,
1360,2.65625,42,120.0,,,
1361,2.658203125,42,163.0,,,
1362,2.66015625,42,132.0,,,
1363,2.662109375,42,85.0,,,
1364,2.6640625,42,98.0,,,
1365,2.666015625,42,105.0,,,
1366,2.66796875,42,97.0,,,
1367,2.669921875,42,89.0,,,
1368,2.671875,42,125.0,,,
1369,2.673828125,42,210.0,,,
1370,2.67578125,42,261.0,,,
1371,2.677734375,42,218.0,,,
1372,2.6796875,42,179.0,,,
1373,2.681640625,42,209.0,,,
1374,2.68359375,42,304.0,,,
1375,2.685546875,42,299.0,,,
1376,2.6875,43,193.0,,,
1377,2.689453125,43,146.0,,,
1378,2.69140625,43,184.0,,,
1379,2.693359375,43,258.0,,,
1380,2.6953125,43,269.0,,,
1381,2.697265625,43,263.0,,,
1382,2.69921875,43,324.0,,,
1383,2.701171875,43,358.0,,,
1384,2.703125,43,293.0,,,
1385,2.705078125,43,234.0,,,
1386,2.70703125,43,230.0,,,
1387,2.708984375,43,240.0,,,
1388,2.7109375,43,268.0,,,
1389,2.712890625,43,336.0,,,
1390,2.71484375,43,378.0,,,
1391,2.716796875,43,404.0,,,
1392,2.71875,43,381.0,,,
1393,2.720703125,43,360.0,,,
1394,2.72265625,43,435.0,,,
1395,2.724609375,43,587.0,,,
1396,2.7265625,43,562.0,,,
1397,2.728515625,43,400.0,,,
1398,2.73046875,43,371.0,,,
1399,2.732421875,43,459.0,,,
1400,2.734375,43,491.0,,,
1401,2.736328125,43,500.0,,,
1402,2.73828125,43,513.0,,,
1403,2.740234375,43,528.0,,,
1404,2.7421875,43,544.0,,,
1405,2.744140625,43,545.0,,,
1406,2.74609375,43,541.0,,,
1407,2.748046875,43,544.0,,,
1408,2.75,44,565.0,,,
1409,2.751953125,44,548.0,,,
1410,2.75390625,44,471.0,,,
1411,2.755859375,44,409.0,,,
1412,2.7578125,44,454.0,,,
1413,2.759765625,44,512.0,,,
1414,2.76171875,44,422.0,,,
1415,2.763671875,44,327.0,,,
1416,2.765625,44,348.0,,,
1417,2.767578125,44,418.0,,,
1418,2.76953125,44,471.0,,,
1419,2.771484375,44,459.0,,,
1420,2.7734375,44,370.0,,,
1421,2.775390625,44,316.0,,,
1422,2.77734375,44,363.0,,,
1423,2.779296875,44,464.0,,,
1424,2.78125,44,516.0,,,
1425,2.783203125,44,493.0,,,
1426,2.78515625,44,439.0,,,
1427,2.787109375,44,395.0,,,
1428,2.7890625,44,380.0,,,
1429,2.791015625,44,377.0,,,
1430,2.79296875,44,356.0,,,
1431,2.794921875,44,341.0,,,
1432,2.796875,44,373.0,,,
1433,2.798828125,44,362.0,,,
1434,2.80078125,44,337.0,,,
1435,2.802734375,44,324.0,,,
1436,2.8046875,44,320.0,,,
1437,2.806640625,44,296.0,,,
1438,2.80859375,44,278.0,,,
1439,2.810546875,44,277.0,,,
1440,2.8125,45,308.0,,,
1441,2.814453125,45,376.0,,,
1442,2.81640625,45,338.0,,,
1443,2.818359375,45,227.0,,,
1444,2.8203125,45,212.0,,,
1445,2.822265625,45,285.0,,,
1446,2.82421875,45,305.0,,,
1447,2.826171875,45,247.0,,,
1448,2.828125,45,194.0,,,
1449,2.830078125,45,152.0,,,
1450,2.83203125,45,137.0,,,
1451,2.833984375,45,150.0,,,
1452,2.8359375,45,194.0,,,
1453,2.837890625,45,256.0,,,
1454,2.83984375,45,289.0,,,
1455,2.841796875,45,275.0,,,
1456,2.84375,45,229.0,,,
1457,2.845703125,45,144.0,,,
1458,2.84765625,45,124.0,,,
1459,2.849609375,45,130.0,,,
1460,2.8515625,45,75.0,,,
1461,2.853515625,45,35.0,,,
1462,2.85546875,45,49.0,,,
1463,2.857421875,45,86.0,,,
1464,2.859375,45,83.0,,,
1465,2.861328125,45,29.0,,,
1466,2.86328125,45,-8.0,,,
1467,2.865234375,45,8.0,,,
1468,2.8671875,45,43.0,,,
1469,2.869140625,45,18.0,,,
1470,2.87109375,45,-1.0,,,
1471,2.873046875,45,12.0,,,
1472,2.875,46,-19.0,,,
1473,2.876953125,46,-45.0,,,
1474,2.87890625,46,-25.0,,,
1475,2.880859375,46,0.0,,,
1476,2.8828125,46,29.0,,,
1477,2.884765625,46,18.0,,,
1478,2.88671875,46,-11.0,,,
1479,2.888671875,46,-4.0,,,
1480,2.890625,46,44.0,,,
1481,2.892578125,46,89.0,,,
1482,2.89453125,46,34.0,,,
1483,2.896484375,46,-73.0,,,
1484,2.8984375,46,-100.0,,,
1485,2.900390625,46,-78.0,,,
1486,2.90234375,46,-105.0,,,
1487,2.904296875,46,-161.0,,,
1488,2.90625,46,-187.0,,,
1489,2.908203125,46,-174.0,,,
1490,2.91015625,46,-136.0,,,
1491,2.912109375,46,-73.0,,,
1492,2.9140625,46,-34.0,,,
1493,2.916015625,46,-57.0,,,
1494,2.91796875,46,-87.0,,,
1495,2.919921875,46,-83.0,,,
1496,2.921875,46,-73.0,,,
1497,2.923828125,46,-75.0,,,
1498,2.92578125,46,-66.0,,,
1499,2.927734375,46,-40.0,,,
1500,2.9296875,46,-68.0,,,
1501,2.931640625,46,-123.0,,,
1502,2.93359375,46,-138.0,,,
1503,2.935546875,46,-92.0,,,
1504,2.9375,47,-41.0,,,
1505,2.939453125,47,-40.0,,,
1506,2.94140625,47,-89.0,,,
1507,2.943359375,47,-125.0,,,
1508,2.9453125,47,-114.0,,,
1509,2.947265625,47,-103.0,,,
1510,2.94921875,47,-106.0,,,
1511,2.951171875,47,-85.0,,,
1512,2.953125,47,-73.0,,,
1513,2.955078125,47,-99.0,,,
1514,2.95703125,47,-124.0,,,
1515,2.958984375,47,-119.0,,,
1516,2.9609375,47,-129.0,,,
1517,2.962890625,47,-148.0,,,
1518,2.96484375,47,-150.0,,,
1519,2.966796875,47,-137.0,,,
1520,2.96875,47,-133.0,,,
1521,2.970703125,47,-147.0,,,
1522,2.97265625,47,-138.0,,,
1523,2.974609375,47,-113.0,,,
1524,2.9765625,47,-88.0,,,
1525,2.978515625,47,-110.0,,,
1526,2.98046875,47,-142.0,,,
1527,2.982421875,47,-110.0,,,
1528,2.984375,47,-59.0,,,
1529,2.986328125,47,-74.0,,,
1530,2.98828125,47,-146.0,,,
1531,2.990234375,47,-156.0,,,
1532,2.9921875,47,-125.0,,,
1533,2.994140625,47,-152.0,,,
1534,2.99609375,47,-174.0,,,
1535,2.998046875,47,-170.0,,,
1536,3.0,48,-130.0,,,
1537,3.001953125,48,-97.0,,,
1538,3.00390625,48,-84.0,,,
1539,3.005859375,48,-103.0,,,
1540,3.0078125,48,-146.0,,,
1541,3.009765625,48,-172.0,,,
1542,3.01171875,48,-165.0,,,
1543,3.013671875,48,-138.0,,,
1544,3.015625,48,-120.0,,,
1545,3.017578125,48,-115.0,,,
1546,3.01953125,48,-113.0,,,
1547,3.021484375,48,-114.0,,,
1548,3.0234375,48,-150.0,,,
1549,3.025390625,48,-161.0,,,
1550,3.02734375,48,-129.0,,,
1551,3.029296875,48,-90.0,,,
1552,3.03125,48,-94.0,,,
1553,3.033203125,48,-138.0,,,
1554,3.03515625,48,-153.0,,,
1555,3.037109375,48,-106.0,,,
1556,3.0390625,48,-60.0,,,
1557,3.041015625,48,-45.0,,,
1558,3.04296875,48,-100.0,,,
1559,3.044921875,48,-169.0,,,
1560,3.046875,48,-186.0,,,
1561,3.048828125,48,-151.0,,,
1562,3.05078125,48,-110.0,,,
1563,3.052734375,48,-109.0,,,
1564,3.0546875,48,-81.0,,,
1565,3.056640625,48,8.0,,,
1566,3.05859375,48,-5.0,,,
1567,3.060546875,48,-61.0,,,
1568,3.0625,49,-40.0,,,
1569,3.064453125,49,-28.0,,,
1570,3.06640625,49,-51.0,,,
1571,3.068359375,49,-44.0,,,
1572,3.0703125,49,-67.0,,,
1573,3.072265625,49,-135.0,,,
1574,3.07421875,49,-164.0,,,
1575,3.076171875,49,-124.0,,,
1576,3.078125,49,-44.0,,,
1577,3.080078125,49,56.0,,,
1578,3.08203125,49,87.0,,,
1579,3.083984375,49,10.0,,,
1580,3.0859375,49,-27.0,,,
1581,3.087890625,49,-39.0,,,
1582,3.08984375,49,-81.0,,,
1583,3.091796875,49,-93.0,,,
1584,3.09375,49,-82.0,,,
1585,3.095703125,49,-83.0,,,
1586,3.09765625,49,-65.0,,,
1587,3.099609375,49,-42.0,,,
1588,3.1015625,49,-14.0,,,
1589,3.103515625,49,-25.0,,,
1590,3.10546875,49,-7.0,,,
1591,3.107421875,49,69.0,,,
1592,3.109375,49,35.0,,,
1593,3.111328125,49,-30.0,,,
1594,3.11328125,49,-5.0,,,
1595,3.115234375,49,34.0,,,
1596,3.1171875,49,9.0,,,
1597,3.119140625,49,-13.0,,,
1598,3.12109375,49,-14.0,,,
1599,3.123046875,49,5.0,,,
1600,3.125,50,55.0,,,
1601,3.126953125,50,92.0,,,
1602,3.12890625,50,69.0,,,
1603,3.130859375,50,-11.0,,,
1604,3.1328125,50,-43.0,,,
1605,3.134765625,50,23.0,,,
1606,3.13671875,50,106.0,,,
1607,3.138671875,50,121.0,,,
1608,3.140625,50,113.0,,,
1609,3.142578125,50,107.0,,,
1610,3.14453125,50,89.0,,,
1611,3.146484375,50,38.0,,,
1612,3.1484375,50,-25.0,,,
1613,3.150390625,50,-27.0,,,
1614,3.15234375,50,5.0,,,
1615,3.154296875,50,37.0,,,
1616,3.15625,50,58.0,,,
1617,3.158203125,50,99.0,,,
1618,3.16015625,50,89.0,,,
1619,3.162109375,50,42.0,,,
1620,3.1640625,50,34.0,,,
1621,3.166015625,50,91.0,,,
1622,3.16796875,50,59.0,,,
1623,3.169921875,50,-33.0,,,
1624,3.171875,50,-53.0,,,
1625,3.173828125,50,-17.0,,,
1626,3.17578125,50,24.0,,,
1627,3.177734375,50,51.0,,,
1628,3.1796875,50,44.0,,,
1629,3.181640625,50,24.0,,,
1630,3.18359375,50,7.0,,,
1631,3.185546875,50,-13.0,,,
1632,3.1875,51,-35.0,,,
1633,3.189453125,51,-25.0,,,
1634,3.19140625,51,27.0,,,
1635,3.193359375,51,39.0,,,
1636,3.1953125,51,-2.0,,,
1637,3.197265625,51,-22.0,,,
1638,3.19921875,51,-6.0,,,
1639,3.201171875,51,-54.0,,,
1640,3.203125,51,-113.0,,,
1641,3.205078125,51,-122.0,,,
1642,3.20703125,51,-69.0,,,
1643,3.208984375,51,-37.0,,,
1644,3.2109375,51,-83.0,,,
1645,3.212890625,51,-136.0,,,
1646,3.21484375,51,-99.0,,,
1647,3.216796875,51,-7.0,,,
1648,3.21875,51,1.0,,,
1649,3.220703125,51,-67.0,,,
1650,3.22265625,51,-73.0,,,
1651,3.224609375,51,-56.0,,,
1652,3.2265625,51,-104.0,,,
1653,3.228515625,51,-154.0,,,
1654,3.23046875,51,-146.0,,,
1655,3.232421875,51,-57.0,,,
1656,3.234375,51,58.0,,,
1657,3.236328125,51,115.0,,,
1658,3.23828125,51,82.0,,,
1659,3.240234375,51,1.0,,,
1660,3.2421875,51,-94.0,,,
1661,3.244140625,51,-118.0,,,
1662,3.24609375,51,-87.0,,,
1663,3.248046875,51,-105.0,,,
1664,3.25,52,-137.0,,,
1665,3.251953125,52,-119.0,,,
1666,3.25390625,52,-28.0,,,
1667,3.255859375,52,67.0,,,
1668,3.2578125,52,57.0,,,
1669,3.259765625,52,-11.0,,,
1670,3.26171875,52,-55.0,,,
1671,3.263671875,52,-25.0,,,
1672,3.265625,52,20.0,,,
1673,3.267578125,52,51.0,,,
1674,3.26953125,52,16.0,,,
1675,3.271484375,52,-42.0,,,
1676,3.2734375,52,-50.0,,,
1677,3.275390625,52,-17.0,,,
1678,3.27734375,52,17.0,,,
1679,3.279296875,52,34.0,,,
1680,3.28125,52,20.0,,,
1681,3.283203125,52,24.0,,,
1682,3.28515625,52,53.0,,,
1683,3.287109375,52,39.0,,,
1684,3.2890625,52,6.0,,,
1685,3.291015625,52,-6.0,,,
1686,3.29296875,52,11.0,,,
1687,3.294921875,52,19.0,,,
1688,3.296875,52,67.0,,,
1689,3.298828125,52,107.0,,,
1690,3.30078125,52,57.0,,,
1691,3.302734375,52,-55.0,,,
1692,3.3046875,52,-118.0,,,
1693,3.306640625,52,-73.0,,,
1694,3.30859375,52,25.0,,,
1695,3.310546875,52,40.0,,,
1696,3.3125,53,32.0,,,
1697,3.314453125,53,32.0,,,
1698,3.31640625,53,40.0,,,
1699,3.318359375,53,72.0,,,
1700,3.3203125,53,37.0,,,
1701,3.322265625,53,-19.0,,,
1702,3.32421875,53,-6.0,,,
1703,3.326171875,53,19.0,,,
1704,3.328125,53,18.0,,,
1705,3.330078125,53,-27.0,,,
1706,3.33203125,53,-88.0,,,
1707,3.333984375,53,-78.0,,,
1708,3.3359375,53,38.0,,,
1709,3.337890625,53,80.0,,,
1710,3.33984375,53,-8.0,,,
1711,3.341796875,53,-73.0,,,
1712,3.34375,53,-74.0,,,
1713,3.345703125,53,-62.0,,,
1714,3.34765625,53,-75.0,,,
1715,3.349609375,53,-99.0,,,
1716,3.3515625,53,-150.0,,,
1717,3.353515625,53,-148.0,,,
1718,3.35546875,53,-56.0,,,
1719,3.357421875,53,-26.0,,,
1720,3.359375,53,-42.0,,,
1721,3.361328125,53,-20.0,,,
1722,3.36328125,53,41.0,,,
1723,3.365234375,53,90.0,,,
1724,3.3671875,53,35.0,,,
1725,3.369140625,53,-11.0,,,
1726,3.37109375,53,43.0,,,
1727,3.373046875,53,118.0,,,
1728,3.375,54,101.0,,,
1729,3.376953125,54,-5.0,,,
1730,3.37890625,54,-66.0,,,
1731,3.380859375,54,-54.0,,,
1732,3.3828125,54,-8.0,,,
1733,3.384765625,54,19.0,,,
1734,3.38671875,54,3.0,,,
1735,3.388671875,54,-52.0,,,
1736,3.390625,54,-66.0,,,
1737,3.392578125,54,19.0,,,
1738,3.39453125,54,119.0,,,
1739,3.396484375,54,155.0,,,
1740,3.3984375,54,187.0,,,
1741,3.400390625,54,156.0,,,
1742,3.40234375,54,59.0,,,
1743,3.404296875,54,29.0,,,
1744,3.40625,54,76.0,,,
1745,3.408203125,54,118.0,,,
1746,3.41015625,54,82.0,,,
1747,3.412109375,54,11.0,,,
1748,3.4140625,54,-33.0,,,
1749,3.416015625,54,-50.0,,,
1750,3.41796875,54,-39.0,,,
1751,3.419921875,54,4.0,,,
1752,3.421875,54,74.0,,,
1753,3.423828125,54,137.0,,,
1754,3.42578125,54,137.0,,,
1755,3.427734375,54,122.0,,,
1756,3.4296875,54,76.0,,,
1757,3.431640625,54,2.0,,,
1758,3.43359375,54,-18.0,,,
1759,3.435546875,54,-2.0,,,
1760,3.4375,55,56.0,,,
1761,3.439453125,55,106.0,,,
1762,3.44140625,55,6.0,,,
1763,3.443359375,55,-97.0,,,
1764,3.4453125,55,-67.0,,,
1765,3.447265625,55,38.0,,,
1766,3.44921875,55,124.0,,,
1767,3.451171875,55,163.0,,,
1768,3.453125,55,137.0,,,
1769,3.455078125,55,64.0,,,
1770,3.45703125,55,22.0,,,
1771,3.458984375,55,27.0,,,
1772,3.4609375,55,34.0,,,
1773,3.462890625,55,75.0,,,
1774,3.46484375,55,85.0,,,
1775,3.466796875,55,48.0,,,
1776,3.46875,55,20.0,,,
1777,3.470703125,55,-13.0,,,
1778,3.47265625,55,-8.0,,,
1779,3.474609375,55,11.0,,,
1780,3.4765625,55,74.0,,,
1781,3.478515625,55,96.0,,,
1782,3.48046875,55,80.0,,,
1783,3.482421875,55,118.0,,,
1784,3.484375,55,155.0,,,
1785,3.486328125,55,101.0,,,
1786,3.48828125,55,29.0,,,
1787,3.490234375,55,57.0,,,
1788,3.4921875,55,130.0,,,
1789,3.494140625,55,129.0,,,
1790,3.49609375,55,59.0,,,
1791,3.498046875,55,-11.0,,,
1792,3.5,56,-19.0,,,
1793,3.501953125,56,49.0,,,
1794,3.50390625,56,98.0,,,
1795,3.505859375,56,88.0,,,
1796,3.5078125,56,67.0,,,
1797,3.509765625,56,49.0,,,
1798,3.51171875,56,67.0,,,
1799,3.513671875,56,9.0,,,
1800,3.515625,56,-43.0,,,
1801,3.517578125,56,-5.0,,,
1802,3.51953125,56,146.0,,,
1803,3.521484375,56,194.0,,,
1804,3.5234375,56,87.0,,,
1805,3.525390625,56,-25.0,,,
1806,3.52734375,56,-85.0,,,
1807,3.529296875,56,-75.0,,,
1808,3.53125,56,-21.0,,,
1809,3.533203125,56,21.0,,,
1810,3.53515625,56,56.0,,,
1811,3.537109375,56,18.0,,,
1812,3.5390625,56,-21.0,,,
1813,3.541015625,56,35.0,,,
1814,3.54296875,56,108.0,,,
1815,3.544921875,56,104.0,,,
1816,3.546875,56,38.0,,,
1817,3.548828125,56,28.0,,,
1818,3.55078125,56,76.0,,,
1819,3.552734375,56,114.0,,,
1820,3.5546875,56,133.0,,,
1821,3.556640625,56,105.0,,,
1822,3.55859375,56,97.0,,,
1823,3.560546875,56,170.0,,,
1824,3.5625,57,139.0,,,
1825,3.564453125,57,57.0,,,
1826,3.56640625,57,40.0,,,
1827,3.568359375,57,26.0,,,
1828,3.5703125,57,28.0,,,
1829,3.572265625,57,49.0,,,
1830,3.57421875,57,19.0,,,
1831,3.576171875,57,10.0,,,
1832,3.578125,57,91.0,,,
1833,3.580078125,57,195.0,,,
1834,3.58203125,57,213.0,,,
1835,3.583984375,57,82.0,,,
1836,3.5859375,57,-100.0,,,
1837,3.587890625,57,-149.0,,,
1838,3.58984375,57,-55.0,,,
1839,3.591796875,57,13.0,,,
1840,3.59375,57,34.0,,,
1841,3.595703125,57,-4.0,,,
1842,3.59765625,57,-74.0,,,
1843,3.599609375,57,-91.0,,,
1844,3.6015625,57,-66.0,,,
1845,3.603515625,57,-40.0,,,
1846,3.60546875,57,-41.0,,,
1847,3.607421875,57,-38.0,,,
1848,3.609375,57,-59.0,,,
1849,3.611328125,57,-114.0,,,
1850,3.61328125,57,-132.0,,,
1851,3.615234375,57,-89.0,,,
1852,3.6171875,57,-7.0,,,
1853,3.619140625,57,-22.0,,,
1854,3.62109375,57,-86.0,,,
1855,3.623046875,57,-107.0,,,
1856,3.625,58,-118.0,,,
1857,3.626953125,58,-90.0,,,
1858,3.62890625,58,-44.0,,,
1859,3.630859375,58,-20.0,,,
1860,3.6328125,58,6.0,,,
1861,3.634765625,58,3.0,,,
1862,3.63671875,58,-57.0,,,
1863,3.638671875,58,-86.0,,,
1864,3.640625,58,-75.0,,,
1865,3.642578125,58,-68.0,,,
1866,3.64453125,58,-69.0,,,
1867,3.646484375,58,-98.0,,,
1868,3.6484375,58,-107.0,,,
1869,3.650390625,58,-88.0,,,
1870,3.65234375,58,-78.0,,,
1871,3.654296875,58,-20.0,,,
1872,3.65625,58,3.0,,,
1873,3.658203125,58,21.0,,,
1874,3.66015625,58,120.0,,,
1875,3.662109375,58,89.0,,,
1876,3.6640625,58,-75.0,,,
1877,3.666015625,58,-163.0,,,
1878,3.66796875,58,-106.0,,,
1879,3.669921875,58,-40.0,,,
1880,3.671875,58,-19.0,,,
1881,3.673828125,58,-28.0,,,
1882,3.67578125,58,-20.0,,,
1883,3.677734375,58,-8.0,,,
1884,3.6796875,58,-17.0,,,
1885,3.681640625,58,-20.0,,,
1886,3.68359375,58,-17.0,,,
1887,3.685546875,58,20.0,,,
1888,3.6875,59,76.0,,,
1889,3.689453125,59,97.0,,,
1890,3.69140625,59,19.0,,,
1891,3.693359375,59,-72.0,,,
1892,3.6953125,59,-57.0,,,
1893,3.697265625,59,42.0,,,
1894,3.69921875,59,81.0,,,
1895,3.701171875,59,61.0,,,
1896,3.703125,59,48.0,,,
1897,3.705078125,59,37.0,,,
1898,3.70703125,59,69.0,,,
1899,3.708984375,59,103.0,,,
1900,3.7109375,59,119.0,,,
1901,3.712890625,59,99.0,,,
1902,3.71484375,59,42.0,,,
1903,3.716796875,59,34.0,,,
1904,3.71875,59,75.0,,,
1905,3.720703125,59,89.0,,,
1906,3.72265625,59,54.0,,,
1907,3.724609375,59,29.0,,,
1908,3.7265625,59,35.0,,,
1909,3.728515625,59,82.0,,,
1910,3.73046875,59,89.0,,,
1911,3.732421875,59,72.0,,,
1912,3.734375,59,67.0,,,
1913,3.736328125,59,64.0,,,
1914,3.73828125,59,-7.0,,,
1915,3.740234375,59,-83.0,,,
1916,3.7421875,59,-82.0,,,
1917,3.744140625,59,-20.0,,,
1918,3.74609375,59,75.0,,,
1919,3.748046875,59,106.0,,,
1920,3.75,60,115.0,,,
1921,3.751953125,60,193.0,,,
1922,3.75390625,60,179.0,,,
1923,3.755859375,60,54.0,,,
1924,3.7578125,60,11.0,,,
1925,3.759765625,60,54.0,,,
1926,3.76171875,60,70.0,,,
1927,3.763671875,60,149.0,,,
1928,3.765625,60,185.0,,,
1929,3.767578125,60,9.0,,,
1930,3.76953125,60,-148.0,,,
1931,3.771484375,60,-132.0,,,
1932,3.7734375,60,-22.0,,,
1933,3.775390625,60,57.0,,,
1934,3.77734375,60,90.0,,,
1935,3.779296875,60,90.0,,,
1936,3.78125,60,102.0,,,
1937,3.783203125,60,56.0,,,
1938,3.78515625,60,-8.0,,,
1939,3.787109375,60,19.0,,,
1940,3.7890625,60,48.0,,,
1941,3.791015625,60,41.0,,,
1942,3.79296875,60,9.0,,,
1943,3.794921875,60,-45.0,,,
1944,3.796875,60,-58.0,,,
1945,3.798828125,60,-34.0,,,
1946,3.80078125,60,-3.0,,,
1947,3.802734375,60,42.0,,,
1948,3.8046875,60,75.0,,,
1949,3.806640625,60,44.0,,,
1950,3.80859375,60,34.0,,,
1951,3.810546875,60,34.0,,,
1952,3.8125,61,22.0,,,
1953,3.814453125,61,41.0,,,
1954,3.81640625,61,22.0,,,
1955,3.818359375,61,-11.0,,,
1956,3.8203125,61,-19.0,,,
1957,3.822265625,61,17.0,,,
1958,3.82421875,61,85.0,,,
1959,3.826171875,61,116.0,,,
1960,3.828125,61,66.0,,,
1961,3.830078125,61,19.0,,,
1962,3.83203125,61,49.0,,,
1963,3.833984375,61,141.0,,,
1964,3.8359375,61,152.0,,,
1965,3.837890625,61,88.0,,,
1966,3.83984375,61,25.0,,,
1967,3.841796875,61,-40.0,,,
1968,3.84375,61,-66.0,,,
1969,3.845703125,61,-7.0,,,
1970,3.84765625,61,54.0,,,
1971,3.849609375,61,66.0,,,
1972,3.8515625,61,38.0,,,
1973,3.853515625,61,-5.0,,,
1974,3.85546875,61,-20.0,,,
1975,3.857421875,61,3.0,,,
1976,3.859375,61,69.0,,,
1977,3.861328125,61,96.0,,,
1978,3.86328125,61,49.0,,,
1979,3.865234375,61,-44.0,,,
1980,3.8671875,61,-77.0,,,
1981,3.869140625,61,-8.0,,,
1982,3.87109375,61,60.0,,,
1983,3.873046875,61,98.0,,,
1984,3.875,62,129.0,,,
1985,3.876953125,62,112.0,,,
1986,3.87890625,62,41.0,,,
1987,3.880859375,62,38.0,,,
1988,3.8828125,62,134.0,,,
1989,3.884765625,62,185.0,,,
1990,3.88671875,62,170.0,,,
1991,3.888671875,62,100.0,,,
1992,3.890625,62,-5.0,,,
1993,3.892578125,62,-67.0,,,
1994,3.89453125,62,-39.0,,,
1995,3.896484375,62,6.0,,,
1996,3.8984375,62,44.0,,,
1997,3.900390625,62,75.0,,,
1998,3.90234375,62,77.0,,,
1999,3.904296875,62,90.0,,,
2000,3.90625,62,140.0,,,
2001,3.908203125,62,147.0,,,
2002,3.91015625,62,104.0,,,
2003,3.912109375,62,89.0,,,
2004,3.9140625,62,80.0,,,
2005,3.916015625,62,35.0,,,
2006,3.91796875,62,-6.0,,,
2007,3.919921875,62,-11.0,,,
2008,3.921875,62,27.0,,,
2009,3.923828125,62,69.0,,,
2010,3.92578125,62,86.0,,,
2011,3.927734375,62,83.0,,,
2012,3.9296875,62,100.0,,,
2013,3.931640625,62,77.0,,,
2014,3.93359375,62,48.0,,,
2015,3.935546875,62,8.0,,,
2016,3.9375,63,-10.0,,,
2017,3.939453125,63,29.0,,,
2018,3.94140625,63,130.0,,,
2019,3.943359375,63,173.0,,,
2020,3.9453125,63,123.0,,,
2021,3.947265625,63,91.0,,,
2022,3.94921875,63,148.0,,,
2023,3.951171875,63,184.0,,,
2024,3.953125,63,145.0,,,
2025,3.955078125,63,137.0,33553.0,3.955078125,0.001953125
2026,3.95703125,63,137.0,33554.0,3.95703125,0.0
2027,3.958984375,63,137.0,,,
2028,3.9609375,63,96.0,,,
2029,3.962890625,63,42.0,,,
2030,3.96484375,63,7.0,,,
2031,3.966796875,63,-30.0,,,
2032,3.96875,63,-17.0,,,
2033,3.970703125,63,65.0,,,
2034,3.97265625,63,59.0,,,
2035,3.974609375,63,22.0,,,
2036,3.9765625,63,7.0,,,
2037,3.978515625,63,39.0,,,
2038,3.98046875,63,65.0,,,
2039,3.982421875,63,-34.0,,,
2040,3.984375,63,-125.0,,,
2041,3.986328125,63,-139.0,,,
2042,3.98828125,63,-93.0,,,
2043,3.990234375,63,-43.0,,,
2044,3.9921875,63,-24.0,,,
2045,3.994140625,63,-19.0,,,
2046,3.99609375,63,-29.0,,,
2047,3.998046875,63,-60.0,,,
2048,4.0,64,-59.0,,,
2049,4.001953125,64,-43.0,,,
2050,4.00390625,64,-26.0,,,
2051,4.005859375,64,18.0,,,
2052,4.0078125,64,113.0,,,
2053,4.009765625,64,33.0,,,
2054,4.01171875,64,-98.0,,,
2055,4.013671875,64,-104.0,,,
2056,4.015625,64,26.0,,,
2057,4.017578125,64,172.0,,,
2058,4.01953125,64,137.0,,,
2059,4.021484375,64,34.0,,,
2060,4.0234375,64,-21.0,,,
2061,4.025390625,64,-49.0,,,
2062,4.02734375,64,-33.0,,,
2063,4.029296875,64,26.0,,,
2064,4.03125,64,51.0,,,
2065,4.033203125,64,54.0,,,
2066,4.03515625,64,85.0,,,
2067,4.037109375,64,107.0,,,
2068,4.0390625,64,38.0,,,
2069,4.041015625,64,-27.0,,,
2070,4.04296875,64,-11.0,,,
2071,4.044921875,64,1.0,,,
2072,4.046875,64,13.0,,,
2073,4.048828125,64,10.0,,,
2074,4.05078125,64,-37.0,,,
2075,4.052734375,64,-54.0,,,
2076,4.0546875,64,-44.0,,,
2077,4.056640625,64,3.0,,,
2078,4.05859375,64,6.0,,,
2079,4.060546875,64,-21.0,,,
2080,4.0625,65,-22.0,,,
2081,4.064453125,65,-57.0,,,
2082,4.06640625,65,-58.0,,,
2083,4.068359375,65,32.0,,,
2084,4.0703125,65,81.0,,,
2085,4.072265625,65,16.0,,,
2086,4.07421875,65,-55.0,,,
2087,4.076171875,65,-59.0,,,
2088,4.078125,65,-42.0,,,
2089,4.080078125,65,-18.0,,,
2090,4.08203125,65,2.0,,,
2091,4.083984375,65,27.0,,,
2092,4.0859375,65,13.0,,,
2093,4.087890625,65,-40.0,,,
2094,4.08984375,65,-44.0,,,
2095,4.091796875,65,-11.0,,,
2096,4.09375,65,73.0,,,
2097,4.095703125,65,82.0,,,
2098,4.09765625,65,-45.0,,,
2099,4.099609375,65,-137.0,,,
2100,4.1015625,65,-101.0,,,
2101,4.103515625,65,-26.0,,,
2102,4.10546875,65,-4.0,,,
2103,4.107421875,65,7.0,,,
2104,4.109375,65,40.0,,,
2105,4.111328125,65,70.0,,,
2106,4.11328125,65,134.0,,,
2107,4.115234375,65,118.0,,,
2108,4.1171875,65,25.0,,,
2109,4.119140625,65,-18.0,,,
2110,4.12109375,65,-45.0,,,
2111,4.123046875,65,-86.0,,,
2112,4.125,66,-99.0,,,
2113,4.126953125,66,-50.0,,,
2114,4.12890625,66,32.0,,,
2115,4.130859375,66,99.0,,,
2116,4.1328125,66,141.0,,,
2117,4.134765625,66,151.0,,,
2118,4.13671875,66,75.0,,,
2119,4.138671875,66,-10.0,,,
2120,4.140625,66,-20.0,,,
2121,4.142578125,66,7.0,,,
2122,4.14453125,66,-3.0,,,
2123,4.146484375,66,-43.0,,,
2124,4.1484375,66,-68.0,,,
2125,4.150390625,66,-2.0,,,
2126,4.15234375,66,73.0,,,
2127,4.154296875,66,57.0,,,
2128,4.15625,66,39.0,,,
2129,4.158203125,66,73.0,,,
2130,4.16015625,66,59.0,,,
2131,4.162109375,66,-41.0,,,
2132,4.1640625,66,-74.0,,,
2133,4.166015625,66,-23.0,,,
2134,4.16796875,66,16.0,,,
2135,4.169921875,66,-12.0,,,
2136,4.171875,66,-86.0,,,
2137,4.173828125,66,-92.0,,,
2138,4.17578125,66,-50.0,,,
2139,4.177734375,66,5.0,,,
2140,4.1796875,66,40.0,,,
2141,4.181640625,66,45.0,,,
2142,4.18359375,66,93.0,,,
2143,4.185546875,66,75.0,,,
2144,4.1875,67,36.0,,,
2145,4.189453125,67,43.0,,,
2146,4.19140625,67,21.0,,,
2147,4.193359375,67,-9.0,,,
2148,4.1953125,67,-17.0,,,
2149,4.197265625,67,-34.0,,,
2150,4.19921875,67,-71.0,,,
2151,4.201171875,67,-33.0,,,
2152,4.203125,67,70.0,,,
2153,4.205078125,67,64.0,,,
2154,4.20703125,67,36.0,,,
2155,4.208984375,67,37.0,,,
2156,4.2109375,67,5.0,,,
2157,4.212890625,67,-52.0,,,
2158,4.21484375,67,-76.0,,,
2159,4.216796875,67,-78.0,,,
2160,4.21875,67,-10.0,,,
2161,4.220703125,67,19.0,,,
2162,4.22265625,67,-38.0,,,
2163,4.224609375,67,-77.0,,,
2164,4.2265625,67,-60.0,,,
2165,4.228515625,67,-3.0,,,
2166,4.23046875,67,122.0,,,
2167,4.232421875,67,234.0,,,
2168,4.234375,67,33.0,,,
2169,4.236328125,67,-226.0,,,
2170,4.23828125,67,-235.0,,,
2171,4.240234375,67,-93.0,,,
2172,4.2421875,67,16.0,,,
2173,4.244140625,67,52.0,,,
2174,4.24609375,67,21.0,,,
2175,4.248046875,67,-92.0,,,
2176,4.25,68,-164.0,,,
2177,4.251953125,68,-116.0,,,
2178,4.25390625,68,1.0,,,
2179,4.255859375,68,27.0,,,
2180,4.2578125,68,-35.0,,,
2181,4.259765625,68,-53.0,,,
2182,4.26171875,68,22.0,,,
2183,4.263671875,68,41.0,,,
2184,4.265625,68,70.0,,,
2185,4.267578125,68,70.0,,,
2186,4.26953125,68,38.0,,,
2187,4.271484375,68,18.0,,,
2188,4.2734375,68,-4.0,,,
2189,4.275390625,68,26.0,,,
2190,4.27734375,68,140.0,,,
2191,4.279296875,68,122.0,,,
2192,4.28125,68,-13.0,,,
2193,4.283203125,68,-52.0,,,
2194,4.28515625,68,-22.0,,,
2195,4.287109375,68,39.0,,,
2196,4.2890625,68,119.0,,,
2197,4.291015625,68,130.0,,,
2198,4.29296875,68,137.0,,,
2199,4.294921875,68,154.0,,,
2200,4.296875,68,108.0,,,
2201,4.298828125,68,2.0,,,
2202,4.30078125,68,-25.0,,,
2203,4.302734375,68,35.0,,,
2204,4.3046875,68,103.0,,,
2205,4.306640625,68,147.0,,,
2206,4.30859375,68,173.0,,,
2207,4.310546875,68,153.0,,,
2208,4.3125,69,139.0,,,
2209,4.314453125,69,114.0,,,
2210,4.31640625,69,144.0,,,
2211,4.318359375,69,176.0,,,
2212,4.3203125,69,179.0,,,
2213,4.322265625,69,140.0,,,
2214,4.32421875,69,87.0,,,
2215,4.326171875,69,125.0,,,
2216,4.328125,69,150.0,,,
2217,4.330078125,69,138.0,,,
2218,4.33203125,69,213.0,,,
2219,4.333984375,69,330.0,,,
2220,4.3359375,69,369.0,,,
2221,4.337890625,69,357.0,,,
2222,4.33984375,69,354.0,,,
2223,4.341796875,69,309.0,,,
2224,4.34375,69,268.0,,,
2225,4.345703125,69,229.0,,,
2226,4.34765625,69,177.0,,,
2227,4.349609375,69,148.0,,,
2228,4.3515625,69,149.0,,,
2229,4.353515625,69,156.0,,,
2230,4.35546875,69,88.0,,,
2231,4.357421875,69,4.0,,,
2232,4.359375,69,28.0,,,
2233,4.361328125,69,98.0,,,
2234,4.36328125,69,89.0,,,
2235,4.365234375,69,92.0,,,
2236,4.3671875,69,150.0,,,
2237,4.369140625,69,105.0,,,
2238,4.37109375,69,29.0,,,
2239,4.373046875,69,25.0,,,
2240,4.375,70,-9.0,,,
2241,4.376953125,70,-46.0,,,
2242,4.37890625,70,-44.0,,,
2243,4.380859375,70,41.0,,,
2244,4.3828125,70,93.0,,,
2245,4.384765625,70,60.0,,,
2246,4.38671875,70,41.0,,,
2247,4.388671875,70,-9.0,,,
2248,4.390625,70,-44.0,,,
2249,4.392578125,70,-6.0,,,
2250,4.39453125,70,19.0,,,
2251,4.396484375,70,8.0,,,
2252,4.3984375,70,4.0,,,
2253,4.400390625,70,51.0,,,
2254,4.40234375,70,105.0,,,
2255,4.404296875,70,48.0,,,
2256,4.40625,70,-13.0,,,
2257,4.408203125,70,167.0,,,
2258,4.41015625,70,266.0,,,
2259,4.412109375,70,116.0,,,
2260,4.4140625,70,-10.0,,,
2261,4.416015625,70,-4.0,,,
2262,4.41796875,70,96.0,,,
2263,4.419921875,70,196.0,,,
2264,4.421875,70,217.0,,,
2265,4.423828125,70,145.0,,,
2266,4.42578125,70,71.0,,,
2267,4.427734375,70,11.0,,,
2268,4.4296875,70,1.0,,,
2269,4.431640625,70,152.0,,,
2270,4.43359375,70,299.0,,,
2271,4.435546875,70,250.0,,,
2272,4.4375,71,45.0,,,
2273,4.439453125,71,-60.0,,,
2274,4.44140625,71,49.0,,,
2275,4.443359375,71,172.0,,,
2276,4.4453125,71,57.0,,,
2277,4.447265625,71,-94.0,,,
2278,4.44921875,71,-148.0,,,
2279,4.451171875,71,-130.0,,,
2280,4.453125,71,-121.0,,,
2281,4.455078125,71,-136.0,,,
2282,4.45703125,71,-38.0,,,
2283,4.458984375,71,29.0,,,
2284,4.4609375,71,-8.0,,,
2285,4.462890625,71,39.0,,,
2286,4.46484375,71,58.0,,,
2287,4.466796875,71,-3.0,,,
2288,4.46875,71,-73.0,,,
2289,4.470703125,71,-122.0,,,
2290,4.47265625,71,-107.0,,,
2291,4.474609375,71,-6.0,,,
2292,4.4765625,71,69.0,,,
2293,4.478515625,71,28.0,,,
2294,4.48046875,71,4.0,,,
2295,4.482421875,71,56.0,,,
2296,4.484375,71,131.0,,,
2297,4.486328125,71,120.0,,,
2298,4.48828125,71,17.0,,,
2299,4.490234375,71,-65.0,,,
2300,4.4921875,71,-54.0,,,
2301,4.494140625,71,6.0,,,
2302,4.49609375,71,53.0,,,
2303,4.498046875,71,70.0,,,
2304,4.5,72,-26.0,,,
2305,4.501953125,72,-90.0,,,
2306,4.50390625,72,3.0,,,
2307,4.505859375,72,130.0,,,
2308,4.5078125,72,197.0,,,
2309,4.509765625,72,145.0,,,
2310,4.51171875,72,56.0,,,
2311,4.513671875,72,36.0,,,
2312,4.515625,72,-13.0,,,
2313,4.517578125,72,8.0,,,
2314,4.51953125,72,122.0,,,
2315,4.521484375,72,130.0,,,
2316,4.5234375,72,76.0,,,
2317,4.525390625,72,66.0,,,
2318,4.52734375,72,54.0,,,
2319,4.529296875,72,44.0,,,
2320,4.53125,72,21.0,,,
2321,4.533203125,72,84.0,,,
2322,4.53515625,72,167.0,,,
2323,4.537109375,72,210.0,,,
2324,4.5390625,72,225.0,,,
2325,4.541015625,72,131.0,,,
2326,4.54296875,72,-23.0,,,
2327,4.544921875,72,-72.0,,,
2328,4.546875,72,-39.0,,,
2329,4.548828125,72,1.0,,,
2330,4.55078125,72,50.0,,,
2331,4.552734375,72,151.0,,,
2332,4.5546875,72,186.0,,,
2333,4.556640625,72,92.0,,,
2334,4.55859375,72,71.0,,,
2335,4.560546875,72,71.0,,,
2336,4.5625,73,7.0,,,
2337,4.564453125,73,4.0,,,
2338,4.56640625,73,9.0,,,
2339,4.568359375,73,37.0,,,
2340,4.5703125,73,92.0,,,
2341,4.572265625,73,42.0,,,
2342,4.57421875,73,1.0,,,
2343,4.576171875,73,45.0,,,
2344,4.578125,73,109.0,,,
2345,4.580078125,73,37.0,,,
2346,4.58203125,73,-56.0,,,
2347,4.583984375,73,-76.0,,,
2348,4.5859375,73,-57.0,,,
2349,4.587890625,73,-42.0,,,
2350,4.58984375,73,-38.0,,,
2351,4.591796875,73,9.0,,,
2352,4.59375,73,114.0,,,
2353,4.595703125,73,212.0,,,
2354,4.59765625,73,161.0,,,
2355,4.599609375,73,20.0,,,
2356,4.6015625,73,-19.0,,,
2357,4.603515625,73,10.0,,,
2358,4.60546875,73,-22.0,,,
2359,4.607421875,73,-82.0,,,
2360,4.609375,73,-90.0,,,
2361,4.611328125,73,7.0,,,
2362,4.61328125,73,135.0,,,
2363,4.615234375,73,105.0,,,
2364,4.6171875,73,22.0,,,
2365,4.619140625,73,6.0,,,
2366,4.62109375,73,-103.0,,,
2367,4.623046875,73,-189.0,,,
2368,4.625,74,-133.0,,,
2369,4.626953125,74,-78.0,,,
2370,4.62890625,74,-123.0,,,
2371,4.630859375,74,-180.0,,,
2372,4.6328125,74,-152.0,,,
2373,4.634765625,74,-69.0,,,
2374,4.63671875,74,67.0,,,
2375,4.638671875,74,151.0,,,
2376,4.640625,74,32.0,,,
2377,4.642578125,74,-101.0,,,
2378,4.64453125,74,-123.0,,,
2379,4.646484375,74,-82.0,,,
2380,4.6484375,74,-23.0,,,
2381,4.650390625,74,-1.0,,,
2382,4.65234375,74,-10.0,,,
2383,4.654296875,74,-77.0,,,
2384,4.65625,74,-120.0,,,
2385,4.658203125,74,-131.0,,,
2386,4.66015625,74,-98.0,,,
2387,4.662109375,74,52.0,,,
2388,4.6640625,74,99.0,,,
2389,4.666015625,74,-33.0,,,
2390,4.66796875,74,-118.0,,,
2391,4.669921875,74,-40.0,,,
2392,4.671875,74,66.0,,,
2393,4.673828125,74,96.0,,,
2394,4.67578125,74,39.0,,,
2395,4.677734375,74,2.0,,,
2396,4.6796875,74,-8.0,,,
2397,4.681640625,74,-42.0,,,
2398,4.68359375,74,-68.0,,,
2399,4.685546875,74,-92.0,,,
2400,4.6875,75,-91.0,,,
2401,4.689453125,75,-65.0,,,
2402,4.69140625,75,-13.0,,,
2403,4.693359375,75,37.0,,,
2404,4.6953125,75,82.0,,,
2405,4.697265625,75,139.0,,,
2406,4.69921875,75,73.0,,,
2407,4.701171875,75,-38.0,,,
2408,4.703125,75,16.0,,,
2409,4.705078125,75,56.0,,,
2410,4.70703125,75,20.0,,,
2411,4.708984375,75,4.0,,,
2412,4.7109375,75,-33.0,,,
2413,4.712890625,75,-65.0,,,
2414,4.71484375,75,69.0,,,
2415,4.716796875,75,249.0,,,
2416,4.71875,75,160.0,,,
2417,4.720703125,75,-40.0,,,
2418,4.72265625,75,-83.0,,,
2419,4.724609375,75,-23.0,,,
2420,4.7265625,75,5.0,,,
2421,4.728515625,75,0.0,,,
2422,4.73046875,75,13.0,,,
2423,4.732421875,75,56.0,,,
2424,4.734375,75,50.0,,,
2425,4.736328125,75,48.0,,,
2426,4.73828125,75,145.0,,,
2427,4.740234375,75,157.0,,,
2428,4.7421875,75,24.0,,,
2429,4.744140625,75,2.0,,,
2430,4.74609375,75,73.0,,,
2431,4.748046875,75,45.0,,,
2432,4.75,76,-42.0,,,
2433,4.751953125,76,-84.0,,,
2434,4.75390625,76,-5.0,,,
2435,4.755859375,76,66.0,,,
2436,4.7578125,76,48.0,,,
2437,4.759765625,76,10.0,,,
2438,4.76171875,76,50.0,,,
2439,4.763671875,76,123.0,,,
2440,4.765625,76,140.0,,,
2441,4.767578125,76,38.0,,,
2442,4.76953125,76,-29.0,,,
2443,4.771484375,76,26.0,,,
2444,4.7734375,76,168.0,,,
2445,4.775390625,76,205.0,,,
2446,4.77734375,76,81.0,,,
2447,4.779296875,76,-19.0,,,
2448,4.78125,76,6.0,,,
2449,4.783203125,76,58.0,,,
2450,4.78515625,76,114.0,,,
2451,4.787109375,76,130.0,,,
2452,4.7890625,76,84.0,,,
2453,4.791015625,76,57.0,,,
2454,4.79296875,76,43.0,,,
2455,4.794921875,76,28.0,,,
2456,4.796875,76,35.0,,,
2457,4.798828125,76,148.0,,,
2458,4.80078125,76,346.0,,,
2459,4.802734375,76,258.0,,,
2460,4.8046875,76,5.0,,,
2461,4.806640625,76,-51.0,,,
2462,4.80859375,76,17.0,,,
2463,4.810546875,76,43.0,,,
2464,4.8125,77,64.0,,,
2465,4.814453125,77,96.0,,,
2466,4.81640625,77,6.0,,,
2467,4.818359375,77,-62.0,,,
2468,4.8203125,77,-3.0,,,
2469,4.822265625,77,108.0,,,
2470,4.82421875,77,195.0,,,
2471,4.826171875,77,211.0,,,
2472,4.828125,77,147.0,,,
2473,4.830078125,77,50.0,,,
2474,4.83203125,77,11.0,,,
2475,4.833984375,77,-33.0,,,
2476,4.8359375,77,-17.0,,,
2477,4.837890625,77,64.0,,,
2478,4.83984375,77,102.0,,,
2479,4.841796875,77,109.0,,,
2480,4.84375,77,90.0,,,
2481,4.845703125,77,-22.0,,,
2482,4.84765625,77,-97.0,,,
2483,4.849609375,77,-50.0,,,
2484,4.8515625,77,37.0,,,
2485,4.853515625,77,65.0,,,
2486,4.85546875,77,50.0,,,
2487,4.857421875,77,9.0,,,
2488,4.859375,77,35.0,,,
2489,4.861328125,77,43.0,,,
2490,4.86328125,77,39.0,,,
2491,4.865234375,77,27.0,,,
2492,4.8671875,77,22.0,,,
2493,4.869140625,77,25.0,,,
2494,4.87109375,77,61.0,,,
2495,4.873046875,77,85.0,,,
2496,4.875,78,53.0,,,
2497,4.876953125,78,68.0,,,
2498,4.87890625,78,97.0,,,
2499,4.880859375,78,66.0,,,
2500,4.8828125,78,19.0,,,
2501,4.884765625,78,-7.0,,,
2502,4.88671875,78,-40.0,,,
2503,4.888671875,78,-67.0,,,
2504,4.890625,78,-49.0,,,
2505,4.892578125,78,-11.0,,,
2506,4.89453125,78,-12.0,,,
2507,4.896484375,78,-1.0,,,
2508,4.8984375,78,98.0,,,
2509,4.900390625,78,145.0,,,
2510,4.90234375,78,128.0,,,
2511,4.904296875,78,115.0,,,
2512,4.90625,78,55.0,,,
2513,4.908203125,78,-39.0,,,
2514,4.91015625,78,-86.0,,,
2515,4.912109375,78,-73.0,,,
2516,4.9140625,78,52.0,,,
2517,4.916015625,78,134.0,,,
2518,4.91796875,78,4.0,,,
2519,4.919921875,78,-151.0,,,
2520,4.921875,78,-163.0,,,
2521,4.923828125,78,-117.0,,,
2522,4.92578125,78,-50.0,,,
2523,4.927734375,78,-5.0,,,
2524,4.9296875,78,-52.0,,,
2525,4.931640625,78,-105.0,,,
2526,4.93359375,78,-75.0,,,
2527,4.935546875,78,28.0,,,
2528,4.9375,79,107.0,,,
2529,4.939453125,79,26.0,,,
2530,4.94140625,79,-12.0,,,
2531,4.943359375,79,54.0,,,
2532,4.9453125,79,74.0,,,
2533,4.947265625,79,49.0,,,
2534,4.94921875,79,3.0,,,
2535,4.951171875,79,9.0,,,
2536,4.953125,79,83.0,,,
2537,4.955078125,79,122.0,,,
2538,4.95703125,79,149.0,,,
2539,4.958984375,79,148.0,,,
2540,4.9609375,79,121.0,,,
2541,4.962890625,79,156.0,,,
2542,4.96484375,79,194.0,,,
2543,4.966796875,79,101.0,,,
2544,4.96875,79,10.0,,,
2545,4.970703125,79,36.0,,,
2546,4.97265625,79,100.0,,,
2547,4.974609375,79,155.0,,,
2548,4.9765625,79,218.0,,,
2549,4.978515625,79,167.0,,,
2550,4.98046875,79,80.0,,,
2551,4.982421875,79,44.0,,,
2552,4.984375,79,85.0,,,
2553,4.986328125,79,128.0,,,
2554,4.98828125,79,66.0,,,
2555,4.990234375,79,-35.0,,,
2556,4.9921875,79,-42.0,,,
2557,4.994140625,79,107.0,,,
2558,4.99609375,79,157.0,,,
2559,4.998046875,79,49.0,,,
2560,5.0,80,24.0,,,
2561,5.001953125,80,64.0,,,
2562,5.00390625,80,37.0,,,
2563,5.005859375,80,28.0,,,
2564,5.0078125,80,119.0,,,
2565,5.009765625,80,169.0,,,
2566,5.01171875,80,-9.0,,,
2567,5.013671875,80,-130.0,,,
2568,5.015625,80,-59.0,,,
2569,5.017578125,80,20.0,,,
2570,5.01953125,80,129.0,,,
2571,5.021484375,80,192.0,,,
2572,5.0234375,80,72.0,,,
2573,5.025390625,80,-33.0,,,
2574,5.02734375,80,-65.0,,,
2575,5.029296875,80,-49.0,,,
2576,5.03125,80,-7.0,,,
2577,5.033203125,80,33.0,,,
2578,5.03515625,80,102.0,,,
2579,5.037109375,80,162.0,,,
2580,5.0390625,80,113.0,,,
2581,5.041015625,80,-58.0,,,
2582,5.04296875,80,-86.0,,,
2583,5.044921875,80,-59.0,,,
2584,5.046875,80,-57.0,,,
2585,5.048828125,80,-37.0,,,
2586,5.05078125,80,-35.0,,,
2587,5.052734375,80,-88.0,,,
2588,5.0546875,80,-148.0,,,
2589,5.056640625,80,-109.0,,,
2590,5.05859375,80,-18.0,,,
2591,5.060546875,80,-29.0,,,
2592,5.0625,81,-56.0,,,
2593,5.064453125,81,-19.0,,,
2594,5.06640625,81,-50.0,,,
2595,5.068359375,81,-139.0,,,
2596,5.0703125,81,-241.0,,,
2597,5.072265625,81,-248.0,,,
2598,5.07421875,81,-66.0,,,
2599,5.076171875,81,148.0,,,
2600,5.078125,81,144.0,,,
2601,5.080078125,81,-25.0,,,
2602,5.08203125,81,-171.0,,,
2603,5.083984375,81,-168.0,,,
2604,5.0859375,81,-119.0,,,
2605,5.087890625,81,-67.0,,,
2606,5.08984375,81,-43.0,,,
2607,5.091796875,81,-122.0,,,
2608,5.09375,81,-142.0,,,
2609,5.095703125,81,-86.0,,,
2610,5.09765625,81,-6.0,,,
2611,5.099609375,81,123.0,,,
2612,5.1015625,81,220.0,,,
2613,5.103515625,81,131.0,,,
2614,5.10546875,81,35.0,,,
2615,5.107421875,81,21.0,,,
2616,5.109375,81,60.0,,,
2617,5.111328125,81,119.0,,,
2618,5.11328125,81,151.0,,,
2619,5.115234375,81,152.0,,,
2620,5.1171875,81,118.0,,,
2621,5.119140625,81,138.0,,,
2622,5.12109375,81,134.0,,,
2623,5.123046875,81,80.0,,,
2624,5.125,82,39.0,,,
2625,5.126953125,82,92.0,,,
2626,5.12890625,82,170.0,,,
2627,5.130859375,82,136.0,,,
2628,5.1328125,82,66.0,,,
2629,5.134765625,82,82.0,,,
2630,5.13671875,82,123.0,,,
2631,5.138671875,82,202.0,,,
2632,5.140625,82,218.0,,,
2633,5.142578125,82,57.0,,,
2634,5.14453125,82,-83.0,,,
2635,5.146484375,82,-100.0,,,
2636,5.1484375,82,26.0,,,
2637,5.150390625,82,37.0,,,
2638,5.15234375,82,-41.0,,,
2639,5.154296875,82,27.0,,,
2640,5.15625,82,166.0,,,
2641,5.158203125,82,81.0,,,
2642,5.16015625,82,-77.0,,,
2643,5.162109375,82,-81.0,,,
2644,5.1640625,82,-51.0,,,
2645,5.166015625,82,-34.0,,,
2646,5.16796875,82,-9.0,,,
2647,5.169921875,82,-26.0,,,
2648,5.171875,82,-53.0,,,
2649,5.173828125,82,-50.0,,,
2650,5.17578125,82,-43.0,,,
2651,5.177734375,82,1.0,,,
2652,5.1796875,82,82.0,,,
2653,5.181640625,82,67.0,,,
2654,5.18359375,82,10.0,,,
2655,5.185546875,82,33.0,,,
2656,5.1875,83,115.0,,,
2657,5.189453125,83,20.0,,,
2658,5.19140625,83,-98.0,,,
2659,5.193359375,83,-5.0,,,
2660,5.1953125,83,134.0,,,
2661,5.197265625,83,130.0,,,
2662,5.19921875,83,71.0,,,
2663,5.201171875,83,51.0,,,
2664,5.203125,83,23.0,,,
2665,5.205078125,83,0.0,,,
2666,5.20703125,83,50.0,,,
2667,5.208984375,83,76.0,,,
2668,5.2109375,83,43.0,,,
2669,5.212890625,83,52.0,,,
2670,5.21484375,83,-12.0,,,
2671,5.216796875,83,-97.0,,,
2672,5.21875,83,-94.0,,,
2673,5.220703125,83,-49.0,,,
2674,5.22265625,83,-5.0,,,
2675,5.224609375,83,60.0,,,
2676,5.2265625,83,-2.0,,,
2677,5.228515625,83,-104.0,,,
2678,5.23046875,83,-17.0,,,
2679,5.232421875,83,125.0,,,
2680,5.234375,83,101.0,,,
2681,5.236328125,83,-10.0,,,
2682,5.23828125,83,-89.0,,,
2683,5.240234375,83,-106.0,,,
2684,5.2421875,83,-20.0,,,
2685,5.244140625,83,90.0,,,
2686,5.24609375,83,107.0,,,
2687,5.248046875,83,11.0,,,
2688,5.25,84,17.0,,,
2689,5.251953125,84,68.0,,,
2690,5.25390625,84,55.0,,,
2691,5.255859375,84,10.0,,,
2692,5.2578125,84,13.0,,,
2693,5.259765625,84,72.0,,,
2694,5.26171875,84,123.0,,,
2695,5.263671875,84,97.0,,,
2696,5.265625,84,84.0,,,
2697,5.267578125,84,55.0,,,
2698,5.26953125,84,5.0,,,
2699,5.271484375,84,-2.0,,,
2700,5.2734375,84,5.0,,,
2701,5.275390625,84,61.0,,,
2702,5.27734375,84,134.0,,,
2703,5.279296875,84,115.0,,,
2704,5.28125,84,53.0,,,
2705,5.283203125,84,164.0,,,
2706,5.28515625,84,282.0,,,
2707,5.287109375,84,263.0,,,
2708,5.2890625,84,273.0,,,
2709,5.291015625,84,234.0,,,
2710,5.29296875,84,139.0,,,
2711,5.294921875,84,41.0,,,
2712,5.296875,84,84.0,,,
2713,5.298828125,84,192.0,,,
2714,5.30078125,84,183.0,,,
2715,5.302734375,84,104.0,,,
2716,5.3046875,84,89.0,,,
2717,5.306640625,84,160.0,,,
2718,5.30859375,84,232.0,,,
2719,5.310546875,84,187.0,,,
2720,5.3125,85,113.0,,,
2721,5.314453125,85,98.0,,,
2722,5.31640625,85,209.0,,,
2723,5.318359375,85,279.0,,,
2724,5.3203125,85,92.0,,,
2725,5.322265625,85,-69.0,,,
2726,5.32421875,85,12.0,,,
2727,5.326171875,85,209.0,,,
2728,5.328125,85,256.0,,,
2729,5.330078125,85,177.0,,,
2730,5.33203125,85,106.0,,,
2731,5.333984375,85,49.0,,,
2732,5.3359375,85,40.0,,,
2733,5.337890625,85,36.0,,,
2734,5.33984375,85,38.0,,,
2735,5.341796875,85,55.0,,,
2736,5.34375,85,44.0,,,
2737,5.345703125,85,54.0,,,
2738,5.34765625,85,118.0,,,
2739,5.349609375,85,97.0,,,
2740,5.3515625,85,39.0,,,
2741,5.353515625,85,72.0,,,
2742,5.35546875,85,148.0,,,
2743,5.357421875,85,179.0,,,
2744,5.359375,85,173.0,,,
2745,5.361328125,85,147.0,,,
2746,5.36328125,85,107.0,,,
2747,5.365234375,85,51.0,,,
2748,5.3671875,85,32.0,,,
2749,5.369140625,85,113.0,,,
2750,5.37109375,85,178.0,,,
2751,5.373046875,85,213.0,,,
2752,5.375,86,172.0,,,
2753,5.376953125,86,108.0,,,
2754,5.37890625,86,102.0,,,
2755,5.380859375,86,97.0,,,
2756,5.3828125,86,119.0,,,
2757,5.384765625,86,225.0,,,
2758,5.38671875,86,253.0,,,
2759,5.388671875,86,202.0,,,
2760,5.390625,86,152.0,,,
2761,5.392578125,86,154.0,,,
2762,5.39453125,86,183.0,,,
2763,5.396484375,86,117.0,,,
2764,5.3984375,86,69.0,,,
2765,5.400390625,86,112.0,,,
2766,5.40234375,86,184.0,,,
2767,5.404296875,86,233.0,,,
2768,5.40625,86,235.0,,,
2769,5.408203125,86,178.0,,,
2770,5.41015625,86,106.0,,,
2771,5.412109375,86,103.0,,,
2772,5.4140625,86,136.0,,,
2773,5.416015625,86,107.0,,,
2774,5.41796875,86,77.0,,,
2775,5.419921875,86,115.0,,,
2776,5.421875,86,208.0,,,
2777,5.423828125,86,226.0,,,
2778,5.42578125,86,106.0,,,
2779,5.427734375,86,60.0,,,
2780,5.4296875,86,125.0,,,
2781,5.431640625,86,266.0,,,
2782,5.43359375,86,342.0,,,
2783,5.435546875,86,210.0,,,
2784,5.4375,87,73.0,,,
2785,5.439453125,87,58.0,,,
2786,5.44140625,87,146.0,,,
2787,5.443359375,87,196.0,,,
2788,5.4453125,87,202.0,,,
2789,5.447265625,87,165.0,,,
2790,5.44921875,87,50.0,,,
2791,5.451171875,87,52.0,,,
2792,5.453125,87,138.0,,,
2793,5.455078125,87,146.0,,,
2794,5.45703125,87,17.0,,,
2795,5.458984375,87,-60.0,,,
2796,5.4609375,87,19.0,,,
2797,5.462890625,87,164.0,,,
2798,5.46484375,87,211.0,,,
2799,5.466796875,87,76.0,,,
2800,5.46875,87,-97.0,,,
2801,5.470703125,87,-106.0,,,
2802,5.47265625,87,-10.0,,,
2803,5.474609375,87,59.0,,,
2804,5.4765625,87,54.0,,,
2805,5.478515625,87,-9.0,,,
2806,5.48046875,87,10.0,,,
2807,5.482421875,87,58.0,,,
2808,5.484375,87,-46.0,,,
2809,5.486328125,87,-140.0,,,
2810,5.48828125,87,-104.0,,,
2811,5.490234375,87,-68.0,,,
2812,5.4921875,87,-92.0,,,
2813,5.494140625,87,-164.0,,,
2814,5.49609375,87,-165.0,,,
2815,5.498046875,87,-187.0,,,
2816,5.5,88,-213.0,,,
2817,5.501953125,88,-210.0,,,
2818,5.50390625,88,-163.0,,,
2819,5.505859375,88,-168.0,,,
2820,5.5078125,88,-185.0,,,
2821,5.509765625,88,-250.0,,,
2822,5.51171875,88,-363.0,,,
2823,5.513671875,88,-454.0,,,
2824,5.515625,88,-490.0,,,
2825,5.517578125,88,-424.0,,,
2826,5.51953125,88,-361.0,,,
2827,5.521484375,88,-421.0,,,
2828,5.5234375,88,-535.0,,,
2829,5.525390625,88,-621.0,,,
2830,5.52734375,88,-594.0,,,
2831,5.529296875,88,-469.0,,,
2832,5.53125,88,-457.0,,,
2833,5.533203125,88,-570.0,,,
2834,5.53515625,88,-581.0,,,
2835,5.537109375,88,-436.0,,,
2836,5.5390625,88,-394.0,,,
2837,5.541015625,88,-518.0,,,
2838,5.54296875,88,-584.0,,,
2839,5.544921875,88,-519.0,,,
2840,5.546875,88,-487.0,,,
2841,5.548828125,88,-513.0,,,
2842,5.55078125,88,-513.0,,,
2843,5.552734375,88,-455.0,,,
2844,5.5546875,88,-328.0,,,
2845,5.556640625,88,-327.0,,,
2846,5.55859375,88,-371.0,,,
2847,5.560546875,88,-425.0,,,
2848,5.5625,89,-468.0,,,
2849,5.564453125,89,-377.0,,,
2850,5.56640625,89,-273.0,,,
2851,5.568359375,89,-300.0,,,
2852,5.5703125,89,-388.0,,,
2853,5.572265625,89,-406.0,,,
2854,5.57421875,89,-372.0,,,
2855,5.576171875,89,-273.0,,,
2856,5.578125,89,-86.0,,,
2857,5.580078125,89,-52.0,,,
2858,5.58203125,89,-182.0,,,
2859,5.583984375,89,-231.0,,,
2860,5.5859375,89,-261.0,,,
2861,5.587890625,89,-277.0,,,
2862,5.58984375,89,-138.0,,,
2863,5.591796875,89,0.0,,,
2864,5.59375,89,-124.0,,,
2865,5.595703125,89,-276.0,,,
2866,5.59765625,89,-284.0,,,
2867,5.599609375,89,-244.0,,,
2868,5.6015625,89,-198.0,,,
2869,5.603515625,89,-180.0,,,
2870,5.60546875,89,-116.0,,,
2871,5.607421875,89,-94.0,,,
2872,5.609375,89,-164.0,,,
2873,5.611328125,89,-259.0,,,
2874,5.61328125,89,-235.0,,,
2875,5.615234375,89,-153.0,,,
2876,5.6171875,89,-148.0,,,
2877,5.619140625,89,-220.0,,,
2878,5.62109375,89,-257.0,,,
2879,5.623046875,89,-180.0,,,
2880,5.625,90,-131.0,,,
2881,5.626953125,90,-194.0,,,
2882,5.62890625,90,-227.0,,,
2883,5.630859375,90,-140.0,,,
2884,5.6328125,90,-37.0,,,
2885,5.634765625,90,-1.0,,,
2886,5.63671875,90,-23.0,,,
2887,5.638671875,90,-1.0,,,
2888,5.640625,90,90.0,,,
2889,5.642578125,90,84.0,,,
2890,5.64453125,90,22.0,,,
2891,5.646484375,90,28.0,,,
2892,5.6484375,90,64.0,,,
2893,5.650390625,90,120.0,,,
2894,5.65234375,90,217.0,,,
2895,5.654296875,90,221.0,,,
2896,5.65625,90,218.0,,,
2897,5.658203125,90,214.0,,,
2898,5.66015625,90,141.0,,,
2899,5.662109375,90,133.0,,,
2900,5.6640625,90,181.0,,,
2901,5.666015625,90,237.0,,,
2902,5.66796875,90,227.0,,,
2903,5.669921875,90,136.0,,,
2904,5.671875,90,101.0,,,
2905,5.673828125,90,170.0,,,
2906,5.67578125,90,177.0,,,
2907,5.677734375,90,186.0,,,
2908,5.6796875,90,231.0,,,
2909,5.681640625,90,285.0,,,
2910,5.68359375,90,341.0,,,
2911,5.685546875,90,263.0,,,
2912,5.6875,91,186.0,,,
2913,5.689453125,91,278.0,,,
2914,5.69140625,91,326.0,,,
2915,5.693359375,91,283.0,,,
2916,5.6953125,91,290.0,,,
2917,5.697265625,91,293.0,,,
2918,5.69921875,91,137.0,,,
2919,5.701171875,91,0.0,,,
2920,5.703125,91,44.0,,,
2921,5.705078125,91,152.0,,,
2922,5.70703125,91,134.0,,,
2923,5.708984375,91,67.0,,,
2924,5.7109375,91,-71.0,,,
2925,5.712890625,91,-163.0,,,
2926,5.71484375,91,-100.0,,,
2927,5.716796875,91,-19.0,,,
2928,5.71875,91,-114.0,,,
2929,5.720703125,91,-354.0,,,
2930,5.72265625,91,-474.0,,,
2931,5.724609375,91,-397.0,,,
2932,5.7265625,91,-313.0,,,
2933,5.728515625,91,-282.0,,,
2934,5.73046875,91,-356.0,,,
2935,5.732421875,91,-436.0,,,
2936,5.734375,91,-506.0,,,
2937,5.736328125,91,-539.0,,,
2938,5.73828125,91,-488.0,,,
2939,5.740234375,91,-473.0,,,
2940,5.7421875,91,-445.0,,,
2941,5.744140625,91,-418.0,,,
2942,5.74609375,91,-444.0,,,
2943,5.748046875,91,-434.0,,,
2944,5.75,92,-423.0,,,
2945,5.751953125,92,-446.0,,,
2946,5.75390625,92,-419.0,,,
2947,5.755859375,92,-386.0,,,
2948,5.7578125,92,-441.0,,,
2949,5.759765625,92,-443.0,,,
2950,5.76171875,92,-361.0,,,
2951,5.763671875,92,-350.0,,,
2952,5.765625,92,-321.0,,,
2953,5.767578125,92,-286.0,,,
2954,5.76953125,92,-253.0,,,
2955,5.771484375,92,-140.0,,,
2956,5.7734375,92,-98.0,,,
2957,5.775390625,92,-203.0,,,
2958,5.77734375,92,-212.0,,,
2959,5.779296875,92,-76.0,,,
2960,5.78125,92,-20.0,,,
2961,5.783203125,92,-1.0,,,
2962,5.78515625,92,40.0,,,
2963,5.787109375,92,50.0,,,
2964,5.7890625,92,8.0,,,
2965,5.791015625,92,-91.0,,,
2966,5.79296875,92,-168.0,,,
2967,5.794921875,92,-83.0,,,
2968,5.796875,92,119.0,,,
2969,5.798828125,92,200.0,,,
2970,5.80078125,92,86.0,,,
2971,5.802734375,92,-4.0,,,
2972,5.8046875,92,-36.0,,,
2973,5.806640625,92,-24.0,,,
2974,5.80859375,92,23.0,,,
2975,5.810546875,92,54.0,,,
2976,5.8125,93,112.0,,,
2977,5.814453125,93,90.0,,,
2978,5.81640625,93,-17.0,,,
2979,5.818359375,93,-6.0,,,
2980,5.8203125,93,156.0,,,
2981,5.822265625,93,248.0,,,
2982,5.82421875,93,200.0,,,
2983,5.826171875,93,76.0,,,
2984,5.828125,93,13.0,,,
2985,5.830078125,93,135.0,,,
2986,5.83203125,93,280.0,,,
2987,5.833984375,93,260.0,,,
2988,5.8359375,93,137.0,,,
2989,5.837890625,93,40.0,,,
2990,5.83984375,93,40.0,,,
2991,5.841796875,93,167.0,,,
2992,5.84375,93,282.0,,,
2993,5.845703125,93,292.0,,,
2994,5.84765625,93,281.0,,,
2995,5.849609375,93,291.0,,,
2996,5.8515625,93,234.0,,,
2997,5.853515625,93,195.0,,,
2998,5.85546875,93,225.0,,,
2999,5.857421875,93,279.0,,,
3000,5.859375,93,289.0,,,
3001,5.861328125,93,242.0,,,
3002,5.86328125,93,149.0,,,
3003,5.865234375,93,103.0,,,
3004,5.8671875,93,125.0,,,
3005,5.869140625,93,168.0,,,
3006,5.87109375,93,224.0,,,
3007,5.873046875,93,243.0,,,
3008,5.875,94,189.0,,,
3009,5.876953125,94,168.0,,,
3010,5.87890625,94,198.0,,,
3011,5.880859375,94,275.0,,,
3012,5.8828125,94,357.0,,,
3013,5.884765625,94,264.0,,,
3014,5.88671875,94,149.0,,,
3015,5.888671875,94,162.0,,,
3016,5.890625,94,201.0,,,
3017,5.892578125,94,176.0,,,
3018,5.89453125,94,125.0,,,
3019,5.896484375,94,57.0,,,
3020,5.8984375,94,-37.0,,,
3021,5.900390625,94,-24.0,,,
3022,5.90234375,94,49.0,,,
3023,5.904296875,94,114.0,,,
3024,5.90625,94,165.0,,,
3025,5.908203125,94,185.0,,,
3026,5.91015625,94,199.0,,,
3027,5.912109375,94,179.0,,,
3028,5.9140625,94,113.0,,,
3029,5.916015625,94,82.0,,,
3030,5.91796875,94,131.0,,,
3031,5.919921875,94,170.0,,,
3032,5.921875,94,144.0,,,
3033,5.923828125,94,116.0,,,
3034,5.92578125,94,106.0,,,
3035,5.927734375,94,101.0,,,
3036,5.9296875,94,168.0,,,
3037,5.931640625,94,240.0,,,
3038,5.93359375,94,246.0,,,
3039,5.935546875,94,232.0,,,
3040,5.9375,95,144.0,,,
3041,5.939453125,95,-50.0,,,
3042,5.94140625,95,-218.0,,,
3043,5.943359375,95,-298.0,,,
3044,5.9453125,95,-424.0,,,
3045,5.947265625,95,-506.0,,,
3046,5.94921875,95,-530.0,,,
3047,5.951171875,95,-676.0,,,
3048,5.953125,95,-922.0,,,
3049,5.955078125,95,-951.0,,,
3050,5.95703125,95,-964.0,33552.0,5.95703125,0.0
3051,5.958984375,95,-1351.0,,,
3052,5.9609375,95,-1436.0,,,
3053,5.962890625,95,-1237.0,,,
3054,5.96484375,95,-961.0,,,
3055,5.966796875,95,-929.0,,,
3056,5.96875,95,-1077.0,,,
3057,5.970703125,95,-1223.0,,,
3058,5.97265625,95,-1273.0,,,
3059,5.974609375,95,-1220.0,,,
3060,5.9765625,95,-1180.0,,,
3061,5.978515625,95,-1252.0,,,
3062,5.98046875,95,-1361.0,,,
3063,5.982421875,95,-1357.0,,,
3064,5.984375,95,-1303.0,,,
3065,5.986328125,95,-1244.0,,,
3066,5.98828125,95,-1194.0,,,
3067,5.990234375,95,-1146.0,,,
3068,5.9921875,95,-1125.0,,,
3069,5.994140625,95,-1098.0,,,
3070,5.99609375,95,-1058.0,,,
3071,5.998046875,95,-1012.0,,,
3072,6.0,96,-970.0,,,
3073,6.001953125,96,-937.0,,,
3074,6.00390625,96,-910.0,,,
3075,6.005859375,96,-882.0,,,
3076,6.0078125,96,-849.0,,,
3077,6.009765625,96,-812.0,,,
3078,6.01171875,96,-779.0,,,
3079,6.013671875,96,-756.0,,,
3080,6.015625,96,-729.0,,,
3081,6.017578125,96,-700.0,,,
3082,6.01953125,96,-673.0,,,
3083,6.021484375,96,-647.0,,,
3084,6.0234375,96,-621.0,,,
3085,6.025390625,96,-597.0,,,
3086,6.02734375,96,-572.0,,,
3087,6.029296875,96,-551.0,,,
3088,6.03125,96,-531.0,,,
3089,6.033203125,96,-508.0,,,
3090,6.03515625,96,-488.0,,,
3091,6.037109375,96,-470.0,,,
3092,6.0390625,96,-451.0,,,
3093,6.041015625,96,-434.0,,,
3094,6.04296875,96,-417.0,,,
3095,6.044921875,96,-398.0,,,
3096,6.046875,96,-381.0,,,
3097,6.048828125,96,-366.0,,,
3098,6.05078125,96,-353.0,,,
3099,6.052734375,96,-338.0,,,
3100,6.0546875,96,-324.0,,,
3101,6.056640625,96,-311.0,,,
3102,6.05859375,96,-297.0,,,
3103,6.060546875,96,-284.0,,,
3104,6.0625,97,-274.0,,,
3105,6.064453125,97,-262.0,,,
3106,6.06640625,97,-250.0,,,
3107,6.068359375,97,-241.0,,,
3108,6.0703125,97,-230.0,,,
3109,6.072265625,97,-219.0,,,
3110,6.07421875,97,-211.0,,,
3111,6.076171875,97,-200.0,,,
3112,6.078125,97,-193.0,,,
3113,6.080078125,97,-183.0,,,
3114,6.08203125,97,-174.0,,,
3115,6.083984375,97,-168.0,,,
3116,6.0859375,97,-161.0,,,
3117,6.087890625,97,-153.0,,,
3118,6.08984375,97,-147.0,,,
3119,6.091796875,97,-138.0,,,
3120,6.09375,97,-132.0,,,
3121,6.095703125,97,-124.0,,,
3122,6.09765625,97,-120.0,,,
3123,6.099609375,97,-115.0,,,
3124,6.1015625,97,-108.0,,,
3125,6.103515625,97,-103.0,,,
3126,6.10546875,97,-98.0,,,
3127,6.107421875,97,-91.0,,,
3128,6.109375,97,-87.0,,,
3129,6.111328125,97,-83.0,,,
3130,6.11328125,97,-78.0,,,
3131,6.115234375,97,-74.0,,,
3132,6.1171875,97,-70.0,,,
3133,6.119140625,97,-66.0,,,
3134,6.12109375,97,-60.0,,,
3135,6.123046875,97,-58.0,,,
3136,6.125,98,-55.0,,,
3137,6.126953125,98,-52.0,,,
3138,6.12890625,98,-46.0,,,
3139,6.130859375,98,-43.0,,,
3140,6.1328125,98,-40.0,,,
3141,6.134765625,98,-38.0,,,
3142,6.13671875,98,-35.0,,,
3143,6.138671875,98,-33.0,,,
3144,6.140625,98,-28.0,,,
3145,6.142578125,98,-26.0,,,
3146,6.14453125,98,-24.0,,,
3147,6.146484375,98,-22.0,,,
3148,6.1484375,98,-20.0,,,
3149,6.150390625,98,-18.0,,,
3150,6.15234375,98,-14.0,,,
3151,6.154296875,98,-12.0,,,
3152,6.15625,98,-10.0,,,
3153,6.158203125,98,-9.0,,,
3154,6.16015625,98,-7.0,,,
3155,6.162109375,98,-6.0,,,
3156,6.1640625,98,-4.0,,,
3157,6.166015625,98,-2.0,,,
3158,6.16796875,98,-1.0,,,
3159,6.169921875,98,0.0,,,
3160,6.171875,98,2.0,,,
3161,6.173828125,98,4.0,,,
3162,6.17578125,98,6.0,,,
3163,6.177734375,98,10.0,,,
3164,6.1796875,98,20.0,,,
3165,6.181640625,98,34.0,,,
3166,6.18359375,98,40.0,,,
3167,6.185546875,98,41.0,,,
3168,6.1875,99,53.0,,,
3169,6.189453125,99,80.0,,,
3170,6.19140625,99,117.0,,,
3171,6.193359375,99,153.0,,,
3172,6.1953125,99,153.0,,,
3173,6.197265625,99,150.0,,,
3174,6.19921875,99,198.0,,,
3175,6.201171875,99,311.0,,,
3176,6.203125,99,420.0,,,
3177,6.205078125,99,506.0,,,
3178,6.20703125,99,610.0,,,
3179,6.208984375,99,700.0,,,
3180,6.2109375,99,859.0,,,
3181,6.212890625,99,1067.0,,,
3182,6.21484375,99,1233.0,,,
3183,6.216796875,99,1378.0,,,
3184,6.21875,99,1555.0,,,
3185,6.220703125,99,1794.0,,,
3186,6.22265625,99,2001.0,,,
3187,6.224609375,99,2047.0,,,
3188,6.2265625,99,2047.0,,,
3189,6.228515625,99,2047.0,,,
3190,6.23046875,99,2047.0,,,
3191,6.232421875,99,2047.0,,,
3192,6.234375,99,2047.0,,,
3193,6.236328125,99,2047.0,,,
3194,6.23828125,99,2047.0,,,
3195,6.240234375,99,2047.0,,,
3196,6.2421875,99,2047.0,,,
3197,6.244140625,99,2047.0,,,
3198,6.24609375,99,2047.0,,,
3199,6.248046875,99,2047.0,,,
3200,6.25,100,2047.0,,,
3201,6.251953125,100,2047.0,,,
3202,6.25390625,100,2047.0,,,
3203,6.255859375,100,2047.0,,,
3204,6.2578125,100,2047.0,,,
3205,6.259765625,100,2047.0,,,
3206,6.26171875,100,2047.0,,,
3207,6.263671875,100,2047.0,,,
3208,6.265625,100,2047.0,,,
3209,6.267578125,100,2047.0,,,
3210,6.26953125,100,2047.0,,,
3211,6.271484375,100,2047.0,,,
3212,6.2734375,100,2029.0,,,
3213,6.275390625,100,1895.0,,,
3214,6.27734375,100,1833.0,,,
3215,6.279296875,100,1808.0,,,
3216,6.28125,100,1752.0,,,
3217,6.283203125,100,1629.0,,,
3218,6.28515625,100,1357.0,,,
3219,6.287109375,100,1108.0,,,
3220,6.2890625,100,1027.0,,,
3221,6.291015625,100,994.0,,,
3222,6.29296875,100,1027.0,,,
3223,6.294921875,100,1048.0,,,
3224,6.296875,100,1026.0,,,
3225,6.298828125,100,982.0,,,
3226,6.30078125,100,824.0,,,
3227,6.302734375,100,722.0,,,
3228,6.3046875,100,772.0,,,
3229,6.306640625,100,810.0,,,
3230,6.30859375,100,774.0,,,
3231,6.310546875,100,716.0,,,
3232,6.3125,101,683.0,,,
3233,6.314453125,101,796.0,,,
3234,6.31640625,101,956.0,,,
3235,6.318359375,101,945.0,,,
3236,6.3203125,101,875.0,,,
3237,6.322265625,101,891.0,,,
3238,6.32421875,101,955.0,,,
3239,6.326171875,101,988.0,,,
3240,6.328125,101,995.0,,,
3241,6.330078125,101,1003.0,,,
3242,6.33203125,101,1003.0,,,
3243,6.333984375,101,999.0,,,
3244,6.3359375,101,1081.0,,,
3245,6.337890625,101,1165.0,,,
3246,6.33984375,101,1172.0,,,
3247,6.341796875,101,1100.0,,,
3248,6.34375,101,1035.0,,,
3249,6.345703125,101,1010.0,,,
3250,6.34765625,101,1014.0,,,
3251,6.349609375,101,1064.0,,,
3252,6.3515625,101,1089.0,,,
3253,6.353515625,101,1029.0,,,
3254,6.35546875,101,929.0,,,
3255,6.357421875,101,884.0,,,
3256,6.359375,101,923.0,,,
3257,6.361328125,101,951.0,,,
3258,6.36328125,101,946.0,,,
3259,6.365234375,101,928.0,,,
3260,6.3671875,101,915.0,,,
3261,6.369140625,101,898.0,,,
3262,6.37109375,101,873.0,,,
3263,6.373046875,101,839.0,,,
3264,6.375,102,817.0,,,
3265,6.376953125,102,810.0,,,
3266,6.37890625,102,797.0,,,
3267,6.380859375,102,769.0,,,
3268,6.3828125,102,733.0,,,
3269,6.384765625,102,705.0,,,
3270,6.38671875,102,704.0,,,
3271,6.388671875,102,692.0,,,
3272,6.390625,102,665.0,,,
3273,6.392578125,102,641.0,,,
3274,6.39453125,102,614.0,,,
3275,6.396484375,102,589.0,,,
3276,6.3984375,102,580.0,,,
3277,6.400390625,102,569.0,,,
3278,6.40234375,102,547.0,,,
3279,6.404296875,102,520.0,,,
3280,6.40625,102,504.0,,,
3281,6.408203125,102,496.0,,,
3282,6.41015625,102,488.0,,,
3283,6.412109375,102,470.0,,,
3284,6.4140625,102,448.0,,,
3285,6.416015625,102,426.0,,,
3286,6.41796875,102,410.0,,,
3287,6.419921875,102,395.0,,,
3288,6.421875,102,386.0,,,
3289,6.423828125,102,379.0,,,
3290,6.42578125,102,374.0,,,
3291,6.427734375,102,355.0,,,
3292,6.4296875,102,320.0,,,
3293,6.431640625,102,308.0,,,
3294,6.43359375,102,311.0,,,
3295,6.435546875,102,298.0,,,
3296,6.4375,103,278.0,,,
3297,6.439453125,103,263.0,,,
3298,6.44140625,103,245.0,,,
3299,6.443359375,103,229.0,,,
3300,6.4453125,103,229.0,,,
3301,6.447265625,103,242.0,,,
3302,6.44921875,103,217.0,,,
3303,6.451171875,103,167.0,,,
3304,6.453125,103,140.0,,,
3305,6.455078125,103,144.0,,,
3306,6.45703125,103,148.0,,,
3307,6.458984375,103,135.0,,,
3308,6.4609375,103,118.0,,,
3309,6.462890625,103,100.0,,,
3310,6.46484375,103,53.0,,,
3311,6.466796875,103,19.0,,,
3312,6.46875,103,34.0,,,
3313,6.470703125,103,49.0,,,
3314,6.47265625,103,27.0,,,
3315,6.474609375,103,-23.0,,,
3316,6.4765625,103,-70.0,,,
3317,6.478515625,103,-76.0,,,
3318,6.48046875,103,-74.0,,,
3319,6.482421875,103,-57.0,,,
3320,6.484375,103,-18.0,,,
3321,6.486328125,103,-45.0,,,
3322,6.48828125,103,-118.0,,,
3323,6.490234375,103,-166.0,,,
3324,6.4921875,103,-156.0,,,
3325,6.494140625,103,-136.0,,,
3326,6.49609375,103,-149.0,,,
3327,6.498046875,103,-151.0,,,
3328,6.5,104,-149.0,,,
3329,6.501953125,104,-218.0,,,
3330,6.50390625,104,-313.0,,,
3331,6.505859375,104,-337.0,,,
3332,6.5078125,104,-347.0,,,
3333,6.509765625,104,-381.0,,,
3334,6.51171875,104,-385.0,,,
3335,6.513671875,104,-390.0,,,
3336,6.515625,104,-418.0,,,
3337,6.517578125,104,-366.0,33553.0,6.517578125,0.001953125
3338,6.51953125,104,-366.0,33554.0,6.51953125,0.0
3339,6.521484375,104,-358.0,,,
3340,6.5234375,104,-458.0,,,
3341,6.525390625,104,-492.0,,,
3342,6.52734375,104,-485.0,,,
3343,6.529296875,104,-505.0,,,
3344,6.53125,104,-565.0,,,
3345,6.533203125,104,-644.0,,,
3346,6.53515625,104,-726.0,,,
3347,6.537109375,104,-726.0,,,
3348,6.5390625,104,-609.0,,,
3349,6.541015625,104,-531.0,,,
3350,6.54296875,104,-637.0,,,
3351,6.544921875,104,-794.0,,,
3352,6.546875,104,-865.0,,,
3353,6.548828125,104,-881.0,,,
3354,6.55078125,104,-829.0,,,
3355,6.552734375,104,-757.0,,,
3356,6.5546875,104,-796.0,,,
3357,6.556640625,104,-883.0,,,
3358,6.55859375,104,-869.0,,,
3359,6.560546875,104,-763.0,,,
3360,6.5625,105,-665.0,,,
3361,6.564453125,105,-699.0,,,
3362,6.56640625,105,-854.0,,,
3363,6.568359375,105,-997.0,,,
3364,6.5703125,105,-1031.0,,,
3365,6.572265625,105,-1010.0,,,
3366,6.57421875,105,-989.0,,,
3367,6.576171875,105,-965.0,,,
3368,6.578125,105,-865.0,,,
3369,6.580078125,105,-881.0,,,
3370,6.58203125,105,-1013.0,,,
3371,6.583984375,105,-1090.0,,,
3372,6.5859375,105,-1076.0,,,
3373,6.587890625,105,-977.0,,,
3374,6.58984375,105,-820.0,,,
3375,6.591796875,105,-772.0,,,
3376,6.59375,105,-834.0,,,
3377,6.595703125,105,-888.0,,,
3378,6.59765625,105,-884.0,,,
3379,6.599609375,105,-787.0,,,
3380,6.6015625,105,-724.0,,,
3381,6.603515625,105,-777.0,,,
3382,6.60546875,105,-827.0,,,
3383,6.607421875,105,-807.0,,,
3384,6.609375,105,-794.0,,,
3385,6.611328125,105,-777.0,,,
3386,6.61328125,105,-701.0,,,
3387,6.615234375,105,-670.0,,,
3388,6.6171875,105,-714.0,,,
3389,6.619140625,105,-726.0,,,
3390,6.62109375,105,-716.0,,,
3391,6.623046875,105,-702.0,,,
3392,6.625,106,-758.0,,,
3393,6.626953125,106,-797.0,,,
3394,6.62890625,106,-820.0,,,
3395,6.630859375,106,-822.0,,,
3396,6.6328125,106,-755.0,,,
3397,6.634765625,106,-679.0,,,
3398,6.63671875,106,-700.0,,,
3399,6.638671875,106,-764.0,,,
3400,6.640625,106,-828.0,,,
3401,6.642578125,106,-797.0,,,
3402,6.64453125,106,-686.0,,,
3403,6.646484375,106,-684.0,,,
3404,6.6484375,106,-762.0,,,
3405,6.650390625,106,-788.0,,,
3406,6.65234375,106,-754.0,,,
3407,6.654296875,106,-716.0,,,
3408,6.65625,106,-791.0,,,
3409,6.658203125,106,-861.0,,,
3410,6.66015625,106,-791.0,,,
3411,6.662109375,106,-648.0,,,
3412,6.6640625,106,-618.0,,,
3413,6.666015625,106,-662.0,,,
3414,6.66796875,106,-646.0,,,
3415,6.669921875,106,-669.0,,,
3416,6.671875,106,-699.0,,,
3417,6.673828125,106,-618.0,,,
3418,6.67578125,106,-610.0,,,
3419,6.677734375,106,-727.0,,,
3420,6.6796875,106,-817.0,,,
3421,6.681640625,106,-820.0,,,
3422,6.68359375,106,-718.0,,,
3423,6.685546875,106,-600.0,,,
3424,6.6875,107,-589.0,,,
3425,6.689453125,107,-619.0,,,
3426,6.69140625,107,-599.0,,,
3427,6.693359375,107,-581.0,,,
3428,6.6953125,107,-568.0,,,
3429,6.697265625,107,-521.0,,,
3430,6.69921875,107,-467.0,,,
3431,6.701171875,107,-317.0,,,
3432,6.703125,107,-220.0,,,
3433,6.705078125,107,-314.0,,,
3434,6.70703125,107,-394.0,,,
3435,6.708984375,107,-345.0,,,
3436,6.7109375,107,-248.0,,,
3437,6.712890625,107,-184.0,,,
3438,6.71484375,107,-206.0,,,
3439,6.716796875,107,-298.0,,,
3440,6.71875,107,-329.0,,,
3441,6.720703125,107,-228.0,,,
3442,6.72265625,107,-66.0,,,
3443,6.724609375,107,-53.0,,,
3444,6.7265625,107,-196.0,,,
3445,6.728515625,107,-237.0,,,
3446,6.73046875,107,-173.0,,,
3447,6.732421875,107,-74.0,,,
3448,6.734375,107,-42.0,,,
3449,6.736328125,107,-184.0,,,
3450,6.73828125,107,-267.0,,,
3451,6.740234375,107,-214.0,,,
3452,6.7421875,107,-105.0,,,
3453,6.744140625,107,-91.0,,,
3454,6.74609375,107,-162.0,,,
3455,6.748046875,107,-203.0,,,
3456,6.75,108,-201.0,,,
3457,6.751953125,108,-261.0,,,
3458,6.75390625,108,-346.0,,,
3459,6.755859375,108,-345.0,,,
3460,6.7578125,108,-259.0,,,
3461,6.759765625,108,-202.0,,,
3462,6.76171875,108,-170.0,,,
3463,6.763671875,108,-171.0,,,
3464,6.765625,108,-216.0,,,
3465,6.767578125,108,-267.0,,,
3466,6.76953125,108,-314.0,,,
3467,6.771484375,108,-313.0,,,
3468,6.7734375,108,-210.0,,,
3469,6.775390625,108,-81.0,,,
3470,6.77734375,108,-110.0,,,
3471,6.779296875,108,-168.0,,,
3472,6.78125,108,-180.0,,,
3473,6.783203125,108,-179.0,,,
3474,6.78515625,108,-135.0,,,
3475,6.787109375,108,-97.0,,,
3476,6.7890625,108,-121.0,,,
3477,6.791015625,108,-167.0,,,
3478,6.79296875,108,-147.0,,,
3479,6.794921875,108,-46.0,,,
3480,6.796875,108,17.0,,,
3481,6.798828125,108,-22.0,,,
3482,6.80078125,108,-85.0,,,
3483,6.802734375,108,-53.0,,,
3484,6.8046875,108,34.0,,,
3485,6.806640625,108,66.0,,,
3486,6.80859375,108,43.0,,,
3487,6.810546875,108,5.0,,,
3488,6.8125,109,-19.0,,,
3489,6.814453125,109,-11.0,,,
3490,6.81640625,109,0.0,,,
3491,6.818359375,109,24.0,,,
3492,6.8203125,109,86.0,,,
3493,6.822265625,109,129.0,,,
3494,6.82421875,109,80.0,,,
3495,6.826171875,109,45.0,,,
3496,6.828125,109,66.0,,,
3497,6.830078125,109,57.0,,,
3498,6.83203125,109,75.0,,,
3499,6.833984375,109,161.0,,,
3500,6.8359375,109,244.0,,,
3501,6.837890625,109,263.0,,,
3502,6.83984375,109,225.0,,,
3503,6.841796875,109,168.0,,,
3504,6.84375,109,216.0,,,
3505,6.845703125,109,313.0,,,
3506,6.84765625,109,428.0,,,
3507,6.849609375,109,406.0,,,
3508,6.8515625,109,212.0,,,
3509,6.853515625,109,131.0,,,
3510,6.85546875,109,198.0,,,
3511,6.857421875,109,291.0,,,
3512,6.859375,109,264.0,,,
3513,6.861328125,109,212.0,,,
3514,6.86328125,109,240.0,,,
3515,6.865234375,109,266.0,,,
3516,6.8671875,109,246.0,,,
3517,6.869140625,109,231.0,,,
3518,6.87109375,109,243.0,,,
3519,6.873046875,109,203.0,,,
3520,6.875,110,171.0,,,
3521,6.876953125,110,114.0,,,
3522,6.87890625,110,76.0,,,
3523,6.880859375,110,124.0,,,
3524,6.8828125,110,188.0,,,
3525,6.884765625,110,170.0,,,
3526,6.88671875,110,118.0,,,
3527,6.888671875,110,77.0,,,
3528,6.890625,110,68.0,,,
3529,6.892578125,110,102.0,,,
3530,6.89453125,110,136.0,,,
3531,6.896484375,110,132.0,,,
3532,6.8984375,110,130.0,,,
3533,6.900390625,110,67.0,,,
3534,6.90234375,110,-6.0,,,
3535,6.904296875,110,28.0,,,
3536,6.90625,110,43.0,,,
3537,6.908203125,110,10.0,,,
3538,6.91015625,110,34.0,,,
3539,6.912109375,110,120.0,,,
3540,6.9140625,110,167.0,,,
3541,6.916015625,110,112.0,,,
3542,6.91796875,110,13.0,,,
3543,6.919921875,110,25.0,,,
3544,6.921875,110,165.0,,,
3545,6.923828125,110,208.0,,,
3546,6.92578125,110,106.0,,,
3547,6.927734375,110,-29.0,,,
3548,6.9296875,110,-100.0,,,
3549,6.931640625,110,-87.0,,,
3550,6.93359375,110,2.0,,,
3551,6.935546875,110,105.0,,,
3552,6.9375,111,187.0,,,
3553,6.939453125,111,231.0,,,
3554,6.94140625,111,252.0,,,
3555,6.943359375,111,234.0,,,
3556,6.9453125,111,211.0,,,
3557,6.947265625,111,130.0,,,
3558,6.94921875,111,25.0,,,
3559,6.951171875,111,18.0,,,
3560,6.953125,111,12.0,,,
3561,6.955078125,111,-21.0,,,
3562,6.95703125,111,-38.0,,,
3563,6.958984375,111,3.0,,,
3564,6.9609375,111,42.0,,,
3565,6.962890625,111,36.0,,,
3566,6.96484375,111,5.0,,,
3567,6.966796875,111,24.0,,,
3568,6.96875,111,57.0,,,
3569,6.970703125,111,36.0,,,
3570,6.97265625,111,-6.0,,,
3571,6.974609375,111,-18.0,,,
3572,6.9765625,111,-84.0,,,
3573,6.978515625,111,-154.0,,,
3574,6.98046875,111,-154.0,,,
3575,6.982421875,111,-108.0,,,
3576,6.984375,111,-58.0,,,
3577,6.986328125,111,-50.0,,,
3578,6.98828125,111,-123.0,,,
3579,6.990234375,111,-199.0,,,
3580,6.9921875,111,-237.0,,,
3581,6.994140625,111,-246.0,,,
3582,6.99609375,111,-231.0,,,
3583,6.998046875,111,-252.0,,,
3584,7.0,112,-305.0,,,
3585,7.001953125,112,-316.0,,,
3586,7.00390625,112,-260.0,,,
3587,7.005859375,112,-236.0,,,
3588,7.0078125,112,-205.0,,,
3589,7.009765625,112,-173.0,,,
3590,7.01171875,112,-186.0,,,
3591,7.013671875,112,-201.0,,,
3592,7.015625,112,-222.0,,,
3593,7.017578125,112,-264.0,,,
3594,7.01953125,112,-254.0,,,
3595,7.021484375,112,-168.0,,,
3596,7.0234375,112,-163.0,,,
3597,7.025390625,112,-215.0,,,
3598,7.02734375,112,-135.0,,,
3599,7.029296875,112,-30.0,,,
3600,7.03125,112,-30.0,,,
3601,7.033203125,112,-39.0,,,
3602,7.03515625,112,10.0,,,
3603,7.037109375,112,89.0,,,
3604,7.0390625,112,8.0,,,
3605,7.041015625,112,-75.0,,,
3606,7.04296875,112,-58.0,,,
3607,7.044921875,112,-14.0,,,
3608,7.046875,112,18.0,,,
3609,7.048828125,112,18.0,,,
3610,7.05078125,112,21.0,,,
3611,7.052734375,112,75.0,,,
3612,7.0546875,112,90.0,,,
3613,7.056640625,112,-23.0,,,
3614,7.05859375,112,-132.0,,,
3615,7.060546875,112,-37.0,,,
3616,7.0625,113,4.0,,,
3617,7.064453125,113,-24.0,,,
3618,7.06640625,113,-52.0,,,
3619,7.068359375,113,-4.0,,,
3620,7.0703125,113,40.0,,,
3621,7.072265625,113,27.0,,,
3622,7.07421875,113,36.0,,,
3623,7.076171875,113,97.0,,,
3624,7.078125,113,130.0,,,
3625,7.080078125,113,150.0,,,
3626,7.08203125,113,211.0,,,
3627,7.083984375,113,257.0,,,
3628,7.0859375,113,194.0,,,
3629,7.087890625,113,43.0,,,
3630,7.08984375,113,-58.0,,,
3631,7.091796875,113,-35.0,,,
3632,7.09375,113,84.0,,,
3633,7.095703125,113,113.0,,,
3634,7.09765625,113,57.0,,,
3635,7.099609375,113,54.0,,,
3636,7.1015625,113,112.0,,,
3637,7.103515625,113,122.0,,,
3638,7.10546875,113,84.0,,,
3639,7.107421875,113,81.0,,,
3640,7.109375,113,149.0,,,
3641,7.111328125,113,186.0,,,
3642,7.11328125,113,213.0,,,
3643,7.115234375,113,193.0,,,
3644,7.1171875,113,162.0,,,
3645,7.119140625,113,99.0,,,
3646,7.12109375,113,54.0,,,
3647,7.123046875,113,102.0,,,
3648,7.125,114,131.0,,,
3649,7.126953125,114,119.0,,,
3650,7.12890625,114,107.0,,,
3651,7.130859375,114,105.0,,,
3652,7.1328125,114,98.0,,,
3653,7.134765625,114,137.0,,,
3654,7.13671875,114,265.0,,,
3655,7.138671875,114,284.0,,,
3656,7.140625,114,232.0,,,
3657,7.142578125,114,219.0,,,
3658,7.14453125,114,248.0,,,
3659,7.146484375,114,283.0,,,
3660,7.1484375,114,232.0,,,
3661,7.150390625,114,141.0,,,
3662,7.15234375,114,123.0,,,
3663,7.154296875,114,204.0,,,
3664,7.15625,114,344.0,,,
3665,7.158203125,114,404.0,,,
3666,7.16015625,114,416.0,,,
3667,7.162109375,114,391.0,,,
3668,7.1640625,114,249.0,,,
3669,7.166015625,114,116.0,,,
3670,7.16796875,114,97.0,,,
3671,7.169921875,114,154.0,,,
3672,7.171875,114,179.0,,,
3673,7.173828125,114,167.0,,,
3674,7.17578125,114,134.0,,,
3675,7.177734375,114,140.0,,,
3676,7.1796875,114,263.0,,,
3677,7.181640625,114,387.0,,,
3678,7.18359375,114,323.0,,,
3679,7.185546875,114,197.0,,,
3680,7.1875,115,184.0,,,
3681,7.189453125,115,268.0,,,
3682,7.19140625,115,321.0,,,
3683,7.193359375,115,305.0,,,
3684,7.1953125,115,279.0,,,
3685,7.197265625,115,227.0,,,
3686,7.19921875,115,225.0,,,
3687,7.201171875,115,330.0,,,
3688,7.203125,115,424.0,,,
3689,7.205078125,115,419.0,,,
3690,7.20703125,115,376.0,,,
3691,7.208984375,115,327.0,,,
3692,7.2109375,115,241.0,,,
3693,7.212890625,115,218.0,,,
3694,7.21484375,115,276.0,,,
3695,7.216796875,115,364.0,,,
3696,7.21875,115,465.0,,,
3697,7.220703125,115,508.0,,,
3698,7.22265625,115,341.0,,,
3699,7.224609375,115,220.0,,,
3700,7.2265625,115,275.0,,,
3701,7.228515625,115,292.0,,,
3702,7.23046875,115,290.0,,,
3703,7.232421875,115,314.0,,,
3704,7.234375,115,269.0,,,
3705,7.236328125,115,176.0,,,
3706,7.23828125,115,135.0,,,
3707,7.240234375,115,181.0,,,
3708,7.2421875,115,229.0,,,
3709,7.244140625,115,218.0,,,
3710,7.24609375,115,161.0,,,
3711,7.248046875,115,170.0,,,
3712,7.25,116,295.0,,,
3713,7.251953125,116,413.0,,,
3714,7.25390625,116,380.0,,,
3715,7.255859375,116,258.0,,,
3716,7.2578125,116,165.0,,,
3717,7.259765625,116,185.0,,,
3718,7.26171875,116,177.0,,,
3719,7.263671875,116,149.0,,,
3720,7.265625,116,124.0,,,
3721,7.267578125,116,57.0,,,
3722,7.26953125,116,9.0,,,
3723,7.271484375,116,51.0,,,
3724,7.2734375,116,156.0,,,
3725,7.275390625,116,226.0,,,
3726,7.27734375,116,208.0,,,
3727,7.279296875,116,137.0,,,
3728,7.28125,116,106.0,,,
3729,7.283203125,116,169.0,,,
3730,7.28515625,116,300.0,,,
3731,7.287109375,116,342.0,,,
3732,7.2890625,116,327.0,,,
3733,7.291015625,116,389.0,,,
3734,7.29296875,116,322.0,,,
3735,7.294921875,116,147.0,,,
3736,7.296875,116,72.0,,,
3737,7.298828125,116,101.0,,,
3738,7.30078125,116,139.0,,,
3739,7.302734375,116,89.0,,,
3740,7.3046875,116,36.0,,,
3741,7.306640625,116,84.0,,,
3742,7.30859375,116,123.0,,,
3743,7.310546875,116,163.0,,,
3744,7.3125,117,218.0,,,
3745,7.314453125,117,245.0,,,
3746,7.31640625,117,240.0,,,
3747,7.318359375,117,226.0,,,
3748,7.3203125,117,217.0,,,
3749,7.322265625,117,247.0,,,
3750,7.32421875,117,295.0,,,
3751,7.326171875,117,365.0,,,
3752,7.328125,117,407.0,,,
3753,7.330078125,117,385.0,,,
3754,7.33203125,117,402.0,,,
3755,7.333984375,117,413.0,,,
3756,7.3359375,117,343.0,,,
3757,7.337890625,117,226.0,,,
3758,7.33984375,117,122.0,,,
3759,7.341796875,117,121.0,,,
3760,7.34375,117,216.0,,,
3761,7.345703125,117,296.0,,,
3762,7.34765625,117,289.0,,,
3763,7.349609375,117,236.0,,,
3764,7.3515625,117,273.0,,,
3765,7.353515625,117,406.0,,,
3766,7.35546875,117,468.0,,,
3767,7.357421875,117,395.0,,,
3768,7.359375,117,291.0,,,
3769,7.361328125,117,236.0,,,
3770,7.36328125,117,284.0,,,
3771,7.365234375,117,396.0,,,
3772,7.3671875,117,344.0,,,
3773,7.369140625,117,182.0,,,
3774,7.37109375,117,109.0,,,
3775,7.373046875,117,168.0,,,
3776,7.375,118,235.0,,,
3777,7.376953125,118,240.0,,,
3778,7.37890625,118,225.0,,,
3779,7.380859375,118,196.0,,,
3780,7.3828125,118,172.0,,,
3781,7.384765625,118,178.0,,,
3782,7.38671875,118,165.0,,,
3783,7.388671875,118,137.0,,,
3784,7.390625,118,133.0,,,
3785,7.392578125,118,150.0,,,
3786,7.39453125,118,178.0,,,
3787,7.396484375,118,173.0,,,
3788,7.3984375,118,149.0,,,
3789,7.400390625,118,163.0,,,
3790,7.40234375,118,136.0,,,
3791,7.404296875,118,90.0,,,
3792,7.40625,118,113.0,,,
3793,7.408203125,118,146.0,,,
3794,7.41015625,118,196.0,,,
3795,7.412109375,118,225.0,,,
3796,7.4140625,118,167.0,,,
3797,7.416015625,118,150.0,,,
3798,7.41796875,118,236.0,,,
3799,7.419921875,118,299.0,,,
3800,7.421875,118,293.0,,,
3801,7.423828125,118,216.0,,,
3802,7.42578125,118,153.0,,,
3803,7.427734375,118,169.0,,,
3804,7.4296875,118,198.0,,,
3805,7.431640625,118,226.0,,,
3806,7.43359375,118,247.0,,,
3807,7.435546875,118,283.0,,,
3808,7.4375,119,359.0,,,
3809,7.439453125,119,313.0,,,
3810,7.44140625,119,306.0,,,
3811,7.443359375,119,336.0,,,
3812,7.4453125,119,213.0,,,
3813,7.447265625,119,44.0,,,
3814,7.44921875,119,-51.0,,,
3815,7.451171875,119,-41.0,,,
3816,7.453125,119,0.0,,,
3817,7.455078125,119,27.0,,,
3818,7.45703125,119,101.0,,,
3819,7.458984375,119,252.0,,,
3820,7.4609375,119,343.0,,,
3821,7.462890625,119,281.0,,,
3822,7.46484375,119,196.0,,,
3823,7.466796875,119,181.0,,,
3824,7.46875,119,205.0,,,
3825,7.470703125,119,200.0,,,
3826,7.47265625,119,210.0,,,
3827,7.474609375,119,248.0,,,
3828,7.4765625,119,203.0,,,
3829,7.478515625,119,119.0,,,
3830,7.48046875,119,133.0,,,
3831,7.482421875,119,237.0,,,
3832,7.484375,119,348.0,,,
3833,7.486328125,119,376.0,,,
3834,7.48828125,119,240.0,,,
3835,7.490234375,119,70.0,,,
3836,7.4921875,119,41.0,,,
3837,7.494140625,119,153.0,,,
3838,7.49609375,119,256.0,,,
3839,7.498046875,119,237.0,,,
3840,7.5,120,218.0,,,
3841,7.501953125,120,246.0,,,
3842,7.50390625,120,241.0,,,
3843,7.505859375,120,116.0,,,
3844,7.5078125,120,25.0,,,
3845,7.509765625,120,54.0,,,
3846,7.51171875,120,114.0,,,
3847,7.513671875,120,145.0,,,
3848,7.515625,120,128.0,,,
3849,7.517578125,120,51.0,,,
3850,7.51953125,120,16.0,,,
3851,7.521484375,120,66.0,,,
3852,7.5234375,120,197.0,,,
3853,7.525390625,120,339.0,,,
3854,7.52734375,120,312.0,,,
3855,7.529296875,120,152.0,,,
3856,7.53125,120,34.0,,,
3857,7.533203125,120,34.0,,,
3858,7.53515625,120,38.0,,,
3859,7.537109375,120,26.0,,,
3860,7.5390625,120,33.0,,,
3861,7.541015625,120,69.0,,,
3862,7.54296875,120,141.0,,,
3863,7.544921875,120,225.0,,,
3864,7.546875,120,294.0,,,
3865,7.548828125,120,337.0,,,
3866,7.55078125,120,273.0,,,
3867,7.552734375,120,196.0,,,
3868,7.5546875,120,198.0,,,
3869,7.556640625,120,217.0,,,
3870,7.55859375,120,202.0,,,
3871,7.560546875,120,133.0,,,
3872,7.5625,121,91.0,,,
3873,7.564453125,121,122.0,,,
3874,7.56640625,121,153.0,,,
3875,7.568359375,121,164.0,,,
3876,7.5703125,121,192.0,,,
3877,7.572265625,121,214.0,,,
3878,7.57421875,121,211.0,,,
3879,7.576171875,121,208.0,,,
3880,7.578125,121,244.0,,,
3881,7.580078125,121,273.0,,,
3882,7.58203125,121,311.0,,,
3883,7.583984375,121,226.0,,,
3884,7.5859375,121,108.0,,,
3885,7.587890625,121,91.0,,,
3886,7.58984375,121,150.0,,,
3887,7.591796875,121,160.0,,,
3888,7.59375,121,102.0,,,
3889,7.595703125,121,125.0,,,
3890,7.59765625,121,171.0,,,
3891,7.599609375,121,228.0,,,
3892,7.6015625,121,237.0,,,
3893,7.603515625,121,183.0,,,
3894,7.60546875,121,171.0,,,
3895,7.607421875,121,182.0,,,
3896,7.609375,121,162.0,,,
3897,7.611328125,121,124.0,,,
3898,7.61328125,121,75.0,,,
3899,7.615234375,121,69.0,,,
3900,7.6171875,121,171.0,,,
3901,7.619140625,121,320.0,,,
3902,7.62109375,121,300.0,,,
3903,7.623046875,121,102.0,,,
3904,7.625,122,-10.0,,,
3905,7.626953125,122,-37.0,,,
3906,7.62890625,122,-53.0,,,
3907,7.630859375,122,-55.0,,,
3908,7.6328125,122,-41.0,,,
3909,7.634765625,122,-17.0,,,
3910,7.63671875,122,2.0,,,
3911,7.638671875,122,22.0,,,
3912,7.640625,122,23.0,,,
3913,7.642578125,122,45.0,,,
3914,7.64453125,122,102.0,,,
3915,7.646484375,122,152.0,,,
3916,7.6484375,122,136.0,,,
3917,7.650390625,122,75.0,,,
3918,7.65234375,122,76.0,,,
3919,7.654296875,122,120.0,,,
3920,7.65625,122,105.0,,,
3921,7.658203125,122,55.0,,,
3922,7.66015625,122,0.0,,,
3923,7.662109375,122,48.0,,,
3924,7.6640625,122,69.0,,,
3925,7.666015625,122,-1.0,,,
3926,7.66796875,122,-72.0,,,
3927,7.669921875,122,-104.0,,,
3928,7.671875,122,-83.0,,,
3929,7.673828125,122,-52.0,,,
3930,7.67578125,122,-25.0,,,
3931,7.677734375,122,-4.0,,,
3932,7.6796875,122,2.0,,,
3933,7.681640625,122,29.0,,,
3934,7.68359375,122,2.0,,,
3935,7.685546875,122,-37.0,,,
3936,7.6875,123,0.0,,,
3937,7.689453125,123,85.0,,,
3938,7.69140625,123,123.0,,,
3939,7.693359375,123,73.0,,,
3940,7.6953125,123,-22.0,,,
3941,7.697265625,123,-86.0,,,
3942,7.69921875,123,-113.0,,,
3943,7.701171875,123,-11.0,,,
3944,7.703125,123,102.0,,,
3945,7.705078125,123,82.0,,,
3946,7.70703125,123,-6.0,,,
3947,7.708984375,123,-77.0,,,
3948,7.7109375,123,-134.0,,,
3949,7.712890625,123,-107.0,,,
3950,7.71484375,123,-87.0,,,
3951,7.716796875,123,-195.0,,,
3952,7.71875,123,-295.0,,,
3953,7.720703125,123,-234.0,,,
3954,7.72265625,123,-43.0,,,
3955,7.724609375,123,104.0,,,
3956,7.7265625,123,133.0,,,
3957,7.728515625,123,186.0,,,
3958,7.73046875,123,347.0,,,
3959,7.732421875,123,423.0,,,
3960,7.734375,123,365.0,,,
3961,7.736328125,123,313.0,,,
3962,7.73828125,123,290.0,,,
3963,7.740234375,123,214.0,,,
3964,7.7421875,123,141.0,,,
3965,7.744140625,123,85.0,,,
3966,7.74609375,123,38.0,,,
3967,7.748046875,123,50.0,,,
3968,7.75,124,133.0,,,
3969,7.751953125,124,202.0,,,
3970,7.75390625,124,149.0,,,
3971,7.755859375,124,93.0,,,
3972,7.7578125,124,154.0,,,
3973,7.759765625,124,230.0,,,
3974,7.76171875,124,218.0,,,
3975,7.763671875,124,149.0,,,
3976,7.765625,124,89.0,,,
3977,7.767578125,124,88.0,,,
3978,7.76953125,124,145.0,,,
3979,7.771484375,124,241.0,,,
3980,7.7734375,124,234.0,,,
3981,7.775390625,124,137.0,,,
3982,7.77734375,124,68.0,,,
3983,7.779296875,124,59.0,,,
3984,7.78125,124,89.0,,,
3985,7.783203125,124,173.0,,,
3986,7.78515625,124,211.0,,,
3987,7.787109375,124,146.0,,,
3988,7.7890625,124,116.0,,,
3989,7.791015625,124,129.0,,,
3990,7.79296875,124,165.0,,,
3991,7.794921875,124,214.0,,,
3992,7.796875,124,200.0,,,
3993,7.798828125,124,86.0,,,
3994,7.80078125,124,-19.0,,,
3995,7.802734375,124,-52.0,,,
3996,7.8046875,124,5.0,,,
3997,7.806640625,124,77.0,,,
3998,7.80859375,124,99.0,,,
3999,7.810546875,124,57.0,,,
4000,7.8125,125,-5.0,,,
4001,7.814453125,125,-43.0,,,
4002,7.81640625,125,-27.0,,,
4003,7.818359375,125,41.0,,,
4004,7.8203125,125,81.0,,,
4005,7.822265625,125,66.0,,,
4006,7.82421875,125,42.0,,,
4007,7.826171875,125,34.0,,,
4008,7.828125,125,40.0,,,
4009,7.830078125,125,38.0,,,
4010,7.83203125,125,48.0,,,
4011,7.833984375,125,48.0,,,
4012,7.8359375,125,-27.0,,,
4013,7.837890625,125,-101.0,,,
4014,7.83984375,125,-138.0,,,
4015,7.841796875,125,-131.0,,,
4016,7.84375,125,-121.0,,,
4017,7.845703125,125,-109.0,,,
4018,7.84765625,125,-81.0,,,
4019,7.849609375,125,-57.0,,,
4020,7.8515625,125,-75.0,,,
4021,7.853515625,125,-94.0,,,
4022,7.85546875,125,-84.0,,,
4023,7.857421875,125,-74.0,,,
4024,7.859375,125,-58.0,,,
4025,7.861328125,125,35.0,,,
4026,7.86328125,125,167.0,,,
4027,7.865234375,125,210.0,,,
4028,7.8671875,125,156.0,,,
4029,7.869140625,125,124.0,,,
4030,7.87109375,125,103.0,,,
4031,7.873046875,125,102.0,,,
4032,7.875,126,107.0,,,
4033,7.876953125,126,106.0,,,
4034,7.87890625,126,122.0,,,
4035,7.880859375,126,134.0,,,
4036,7.8828125,126,85.0,,,
4037,7.884765625,126,60.0,,,
4038,7.88671875,126,1.0,,,
4039,7.888671875,126,-84.0,,,
4040,7.890625,126,-99.0,,,
4041,7.892578125,126,-54.0,,,
4042,7.89453125,126,-43.0,,,
4043,7.896484375,126,-88.0,,,
4044,7.8984375,126,-108.0,,,
4045,7.900390625,126,-77.0,,,
4046,7.90234375,126,29.0,,,
4047,7.904296875,126,123.0,,,
4048,7.90625,126,117.0,,,
4049,7.908203125,126,16.0,,,
4050,7.91015625,126,-78.0,,,
4051,7.912109375,126,-105.0,,,
4052,7.9140625,126,-77.0,,,
4053,7.916015625,126,-57.0,,,
4054,7.91796875,126,-81.0,,,
4055,7.919921875,126,-74.0,,,
4056,7.921875,126,-4.0,,,
4057,7.923828125,126,134.0,,,
4058,7.92578125,126,189.0,,,
4059,7.927734375,126,83.0,,,
4060,7.9296875,126,-28.0,,,
4061,7.931640625,126,-51.0,,,
4062,7.93359375,126,-20.0,,,
4063,7.935546875,126,-9.0,,,
4064,7.9375,127,-39.0,,,
4065,7.939453125,127,-45.0,,,
4066,7.94140625,127,-59.0,,,
4067,7.943359375,127,-54.0,,,
4068,7.9453125,127,-33.0,,,
4069,7.947265625,127,-29.0,,,
4070,7.94921875,127,-27.0,,,
4071,7.951171875,127,5.0,,,
4072,7.953125,127,23.0,,,
4073,7.955078125,127,-23.0,,,
4074,7.95703125,127,-66.0,,,
4075,7.958984375,127,58.0,,,
4076,7.9609375,127,217.0,,,
4077,7.962890625,127,200.0,,,
4078,7.96484375,127,115.0,,,
4079,7.966796875,127,130.0,,,
4080,7.96875,127,148.0,,,
4081,7.970703125,127,-10.0,,,
4082,7.97265625,127,-182.0,,,
4083,7.974609375,127,-226.0,,,
4084,7.9765625,127,-130.0,,,
4085,7.978515625,127,-50.0,,,
4086,7.98046875,127,-54.0,,,
4087,7.982421875,127,-12.0,,,
4088,7.984375,127,104.0,,,
4089,7.986328125,127,229.0,,,
4090,7.98828125,127,201.0,,,
4091,7.990234375,127,85.0,,,
4092,7.9921875,127,-17.0,,,
4093,7.994140625,127,-45.0,,,
4094,7.99609375,127,-19.0,,,
4095,7.998046875,127,29.0,,,
4096,8.0,128,50.0,,,
4097,8.001953125,128,32.0,,,
4098,8.00390625,128,49.0,,,
4099,8.005859375,128,76.0,,,
4100,8.0078125,128,38.0,,,
4101,8.009765625,128,25.0,,,
4102,8.01171875,128,54.0,,,
4103,8.013671875,128,22.0,,,
4104,8.015625,128,-69.0,,,
4105,8.017578125,128,-124.0,,,
4106,8.01953125,128,-113.0,,,
4107,8.021484375,128,-41.0,,,
4108,8.0234375,128,54.0,,,
4109,8.025390625,128,117.0,,,
4110,8.02734375,128,151.0,,,
4111,8.029296875,128,161.0,,,
4112,8.03125,128,172.0,,,
4113,8.033203125,128,146.0,,,
4114,8.03515625,128,106.0,,,
4115,8.037109375,128,97.0,,,
4116,8.0390625,128,116.0,,,
4117,8.041015625,128,179.0,,,
4118,8.04296875,128,187.0,,,
4119,8.044921875,128,153.0,,,
4120,8.046875,128,179.0,,,
4121,8.048828125,128,165.0,,,
4122,8.05078125,128,70.0,,,
4123,8.052734375,128,-7.0,,,
4124,8.0546875,128,6.0,,,
4125,8.056640625,128,23.0,,,
4126,8.05859375,128,-1.0,,,
4127,8.060546875,128,-18.0,,,
4128,8.0625,129,2.0,,,
4129,8.064453125,129,81.0,,,
4130,8.06640625,129,165.0,,,
4131,8.068359375,129,149.0,,,
4132,8.0703125,129,96.0,,,
4133,8.072265625,129,117.0,,,
4134,8.07421875,129,184.0,,,
4135,8.076171875,129,141.0,,,
4136,8.078125,129,43.0,,,
4137,8.080078125,129,-3.0,,,
4138,8.08203125,129,33.0,,,
4139,8.083984375,129,71.0,,,
4140,8.0859375,129,109.0,,,
4141,8.087890625,129,104.0,,,
4142,8.08984375,129,90.0,,,
4143,8.091796875,129,140.0,,,
4144,8.09375,129,169.0,,,
4145,8.095703125,129,156.0,,,
4146,8.09765625,129,86.0,,,
4147,8.099609375,129,48.0,,,
4148,8.1015625,129,56.0,,,
4149,8.103515625,129,55.0,,,
4150,8.10546875,129,97.0,,,
4151,8.107421875,129,138.0,,,
4152,8.109375,129,129.0,,,
4153,8.111328125,129,98.0,,,
4154,8.11328125,129,88.0,,,
4155,8.115234375,129,90.0,,,
4156,8.1171875,129,84.0,,,
4157,8.119140625,129,80.0,,,
4158,8.12109375,129,101.0,,,
4159,8.123046875,129,116.0,,,
4160,8.125,130,101.0,,,
4161,8.126953125,130,85.0,,,
4162,8.12890625,130,73.0,,,
4163,8.130859375,130,61.0,,,
4164,8.1328125,130,88.0,,,
4165,8.134765625,130,194.0,,,
4166,8.13671875,130,258.0,,,
4167,8.138671875,130,172.0,,,
4168,8.140625,130,53.0,,,
4169,8.142578125,130,6.0,,,
4170,8.14453125,130,51.0,,,
4171,8.146484375,130,74.0,,,
4172,8.1484375,130,53.0,,,
4173,8.150390625,130,61.0,,,
4174,8.15234375,130,86.0,,,
4175,8.154296875,130,72.0,,,
4176,8.15625,130,53.0,,,
4177,8.158203125,130,59.0,,,
4178,8.16015625,130,122.0,,,
4179,8.162109375,130,182.0,,,
4180,8.1640625,130,180.0,,,
4181,8.166015625,130,138.0,,,
4182,8.16796875,130,92.0,,,
4183,8.169921875,130,52.0,,,
4184,8.171875,130,33.0,,,
4185,8.173828125,130,25.0,,,
4186,8.17578125,130,16.0,,,
4187,8.177734375,130,1.0,,,
4188,8.1796875,130,12.0,,,
4189,8.181640625,130,27.0,,,
4190,8.18359375,130,44.0,,,
4191,8.185546875,130,41.0,,,
4192,8.1875,131,2.0,,,
4193,8.189453125,131,23.0,,,
4194,8.19140625,131,108.0,,,
4195,8.193359375,131,122.0,,,
4196,8.1953125,131,60.0,,,
4197,8.197265625,131,-12.0,,,
4198,8.19921875,131,10.0,,,
4199,8.201171875,131,77.0,,,
4200,8.203125,131,50.0,,,
4201,8.205078125,131,-28.0,,,
4202,8.20703125,131,-41.0,,,
4203,8.208984375,131,9.0,,,
4204,8.2109375,131,27.0,,,
4205,8.212890625,131,10.0,,,
4206,8.21484375,131,0.0,,,
4207,8.216796875,131,7.0,,,
4208,8.21875,131,-9.0,,,
4209,8.220703125,131,-45.0,,,
4210,8.22265625,131,-56.0,,,
4211,8.224609375,131,-41.0,,,
4212,8.2265625,131,-33.0,,,
4213,8.228515625,131,-61.0,,,
4214,8.23046875,131,-115.0,,,
4215,8.232421875,131,-156.0,,,
4216,8.234375,131,-146.0,,,
4217,8.236328125,131,-77.0,,,
4218,8.23828125,131,-17.0,,,
4219,8.240234375,131,-50.0,,,
4220,8.2421875,131,-113.0,,,
4221,8.244140625,131,-81.0,,,
4222,8.24609375,131,-8.0,,,
4223,8.248046875,131,4.0,,,
4224,8.25,132,-19.0,,,
4225,8.251953125,132,-33.0,,,
4226,8.25390625,132,-38.0,,,
4227,8.255859375,132,-56.0,,,
4228,8.2578125,132,-56.0,,,
4229,8.259765625,132,-39.0,,,
4230,8.26171875,132,-67.0,,,
4231,8.263671875,132,-115.0,,,
4232,8.265625,132,-141.0,,,
4233,8.267578125,132,-122.0,,,
4234,8.26953125,132,-65.0,,,
4235,8.271484375,132,-5.0,,,
4236,8.2734375,132,-18.0,,,
4237,8.275390625,132,-88.0,,,
4238,8.27734375,132,-122.0,,,
4239,8.279296875,132,-101.0,,,
4240,8.28125,132,-56.0,,,
4241,8.283203125,132,2.0,,,
4242,8.28515625,132,38.0,,,
4243,8.287109375,132,3.0,,,
4244,8.2890625,132,-41.0,,,
4245,8.291015625,132,-59.0,,,
4246,8.29296875,132,-49.0,,,
4247,8.294921875,132,-27.0,,,
4248,8.296875,132,-34.0,,,
4249,8.298828125,132,-24.0,,,
4250,8.30078125,132,4.0,,,
4251,8.302734375,132,-18.0,,,
4252,8.3046875,132,-41.0,,,
4253,8.306640625,132,-37.0,,,
4254,8.30859375,132,-20.0,,,
4255,8.310546875,132,-1.0,,,
4256,8.3125,133,22.0,,,
4257,8.314453125,133,8.0,,,
4258,8.31640625,133,7.0,,,
4259,8.318359375,133,25.0,,,
4260,8.3203125,133,0.0,,,
4261,8.322265625,133,-34.0,,,
4262,8.32421875,133,-10.0,,,
4263,8.326171875,133,25.0,,,
4264,8.328125,133,52.0,,,
4265,8.330078125,133,73.0,,,
4266,8.33203125,133,57.0,,,
4267,8.333984375,133,5.0,,,
4268,8.3359375,133,-54.0,,,
4269,8.337890625,133,-65.0,,,
4270,8.33984375,133,-25.0,,,
4271,8.341796875,133,-2.0,,,
4272,8.34375,133,-34.0,,,
4273,8.345703125,133,-84.0,,,
4274,8.34765625,133,-101.0,,,
4275,8.349609375,133,-106.0,,,
4276,8.3515625,133,-101.0,,,
4277,8.353515625,133,-83.0,,,
4278,8.35546875,133,-72.0,,,
4279,8.357421875,133,-78.0,,,
4280,8.359375,133,-109.0,,,
4281,8.361328125,133,-132.0,,,
4282,8.36328125,133,-131.0,,,
4283,8.365234375,133,-108.0,,,
4284,8.3671875,133,-82.0,,,
4285,8.369140625,133,-84.0,,,
4286,8.37109375,133,-105.0,,,
4287,8.373046875,133,-82.0,,,
4288,8.375,134,-23.0,,,
4289,8.376953125,134,8.0,,,
4290,8.37890625,134,11.0,,,
4291,8.380859375,134,11.0,,,
4292,8.3828125,134,4.0,,,
4293,8.384765625,134,6.0,,,
4294,8.38671875,134,12.0,,,
4295,8.388671875,134,13.0,,,
4296,8.390625,134,-3.0,,,
4297,8.392578125,134,-26.0,,,
4298,8.39453125,134,-33.0,,,
4299,8.396484375,134,-12.0,,,
4300,8.3984375,134,12.0,,,
4301,8.400390625,134,49.0,,,
4302,8.40234375,134,19.0,,,
4303,8.404296875,134,-3.0,,,
4304,8.40625,134,17.0,,,
4305,8.408203125,134,21.0,,,
4306,8.41015625,134,12.0,,,
4307,8.412109375,134,24.0,,,
4308,8.4140625,134,54.0,,,
4309,8.416015625,134,67.0,,,
4310,8.41796875,134,58.0,,,
4311,8.419921875,134,42.0,,,
4312,8.421875,134,1.0,,,
4313,8.423828125,134,-20.0,,,
4314,8.42578125,134,-4.0,,,
4315,8.427734375,134,18.0,,,
4316,8.4296875,134,-17.0,,,
4317,8.431640625,134,-71.0,,,
4318,8.43359375,134,-70.0,,,
4319,8.435546875,134,-60.0,,,
4320,8.4375,135,-58.0,,,
4321,8.439453125,135,-34.0,,,
4322,8.44140625,135,-4.0,,,
