,Time:512Hz,Epoch,Electrode,Event Id,Event Date,Event Duration
90624,177.0,2832,168.0,,,
90625,177.001953125,2832,123.0,,,
90626,177.00390625,2832,52.0,,,
90627,177.005859375,2832,-4.0,,,
90628,177.0078125,2832,4.0,,,
90629,177.009765625,2832,107.0,,,
90630,177.01171875,2832,144.0,,,
90631,177.013671875,2832,98.0,,,
90632,177.015625,2832,73.0,,,
90633,177.017578125,2832,118.0,,,
90634,177.01953125,2832,169.0,,,
90635,177.021484375,2832,160.0,,,
90636,177.0234375,2832,102.0,,,
90637,177.025390625,2832,51.0,,,
90638,177.02734375,2832,118.0,,,
90639,177.029296875,2832,188.0,,,
90640,177.03125,2832,122.0,,,
90641,177.033203125,2832,38.0,,,
90642,177.03515625,2832,66.0,,,
90643,177.037109375,2832,240.0,,,
90644,177.0390625,2832,283.0,,,
90645,177.041015625,2832,128.0,,,
90646,177.04296875,2832,18.0,,,
90647,177.044921875,2832,12.0,,,
90648,177.046875,2832,16.0,,,
90649,177.048828125,2832,10.0,,,
90650,177.05078125,2832,11.0,,,
90651,177.052734375,2832,10.0,,,
90652,177.0546875,2832,-12.0,,,
90653,177.056640625,2832,-74.0,,,
90654,177.05859375,2832,-77.0,,,
90655,177.060546875,2832,21.0,,,
90656,177.0625,2833,130.0,,,
90657,177.064453125,2833,141.0,,,
90658,177.06640625,2833,146.0,,,
90659,177.068359375,2833,93.0,,,
90660,177.0703125,2833,40.0,,,
90661,177.072265625,2833,83.0,,,
90662,177.07421875,2833,152.0,,,
90663,177.076171875,2833,212.0,,,
90664,177.078125,2833,172.0,,,
90665,177.080078125,2833,105.0,,,
90666,177.08203125,2833,108.0,,,
90667,177.083984375,2833,162.0,,,
90668,177.0859375,2833,134.0,,,
90669,177.087890625,2833,56.0,,,
90670,177.08984375,2833,3.0,,,
90671,177.091796875,2833,13.0,,,
90672,177.09375,2833,42.0,,,
90673,177.095703125,2833,28.0,,,
90674,177.09765625,2833,1.0,,,
90675,177.099609375,2833,60.0,,,
90676,177.1015625,2833,166.0,,,
90677,177.103515625,2833,183.0,,,
90678,177.10546875,2833,130.0,,,
90679,177.107421875,2833,75.0,,,
90680,177.109375,2833,67.0,,,
90681,177.111328125,2833,83.0,,,
90682,177.11328125,2833,112.0,,,
90683,177.115234375,2833,123.0,,,
90684,177.1171875,2833,90.0,,,
90685,177.119140625,2833,5.0,,,
90686,177.12109375,2833,12.0,,,
90687,177.123046875,2833,145.0,,,
90688,177.125,2834,210.0,,,
90689,177.126953125,2834,133.0,,,
90690,177.12890625,2834,48.0,,,
90691,177.130859375,2834,1.0,,,
90692,177.1328125,2834,10.0,,,
90693,177.134765625,2834,55.0,,,
90694,177.13671875,2834,57.0,,,
90695,177.138671875,2834,65.0,,,
90696,177.140625,2834,45.0,,,
90697,177.142578125,2834,13.0,,,
90698,177.14453125,2834,39.0,,,
90699,177.146484375,2834,98.0,,,
90700,177.1484375,2834,124.0,,,
90701,177.150390625,2834,98.0,,,
90702,177.15234375,2834,40.0,,,
90703,177.154296875,2834,27.0,,,
90704,177.15625,2834,21.0,,,
90705,177.158203125,2834,26.0,,,
90706,177.16015625,2834,54.0,,,
90707,177.162109375,2834,73.0,,,
90708,177.1640625,2834,83.0,,,
90709,177.166015625,2834,74.0,,,
90710,177.16796875,2834,40.0,,,
90711,177.169921875,2834,48.0,,,
90712,177.171875,2834,116.0,,,
90713,177.173828125,2834,129.0,,,
90714,177.17578125,2834,100.0,,,
90715,177.177734375,2834,50.0,,,
90716,177.1796875,2834,49.0,,,
90717,177.181640625,2834,25.0,,,
90718,177.18359375,2834,9.0,,,
90719,177.185546875,2834,18.0,,,
90720,177.1875,2835,11.0,,,
90721,177.189453125,2835,-18.0,,,
90722,177.19140625,2835,-38.0,,,
90723,177.193359375,2835,-13.0,,,
90724,177.1953125,2835,43.0,,,
90725,177.197265625,2835,48.0,,,
90726,177.19921875,2835,48.0,,,
90727,177.201171875,2835,51.0,,,
90728,177.203125,2835,36.0,,,
90729,177.205078125,2835,56.0,,,
90730,177.20703125,2835,90.0,,,
90731,177.208984375,2835,114.0,,,
90732,177.2109375,2835,124.0,,,
90733,177.212890625,2835,88.0,,,
90734,177.21484375,2835,74.0,,,
90735,177.216796875,2835,82.0,,,
90736,177.21875,2835,77.0,,,
90737,177.220703125,2835,99.0,,,
90738,177.22265625,2835,91.0,,,
90739,177.224609375,2835,100.0,,,
90740,177.2265625,2835,121.0,,,
90741,177.228515625,2835,102.0,,,
90742,177.23046875,2835,90.0,,,
90743,177.232421875,2835,103.0,,,
90744,177.234375,2835,120.0,,,
90745,177.236328125,2835,82.0,,,
90746,177.23828125,2835,19.0,,,
90747,177.240234375,2835,16.0,,,
90748,177.2421875,2835,36.0,,,
90749,177.244140625,2835,1.0,,,
90750,177.24609375,2835,-81.0,,,
90751,177.248046875,2835,-103.0,,,
90752,177.25,2836,-22.0,,,
90753,177.251953125,2836,38.0,,,
90754,177.25390625,2836,6.0,,,
90755,177.255859375,2836,-29.0,,,
90756,177.2578125,2836,40.0,,,
90757,177.259765625,2836,133.0,,,
90758,177.26171875,2836,200.0,,,
90759,177.263671875,2836,220.0,,,
90760,177.265625,2836,171.0,,,
90761,177.267578125,2836,147.0,,,
90762,177.26953125,2836,92.0,,,
90763,177.271484375,2836,10.0,,,
90764,177.2734375,2836,-24.0,,,
90765,177.275390625,2836,48.0,,,
90766,177.27734375,2836,136.0,,,
90767,177.279296875,2836,166.0,,,
90768,177.28125,2836,184.0,,,
90769,177.283203125,2836,211.0,,,
90770,177.28515625,2836,179.0,,,
90771,177.287109375,2836,132.0,,,
90772,177.2890625,2836,123.0,,,
90773,177.291015625,2836,114.0,,,
90774,177.29296875,2836,68.0,,,
90775,177.294921875,2836,10.0,,,
90776,177.296875,2836,-40.0,,,
90777,177.298828125,2836,11.0,,,
90778,177.30078125,2836,145.0,,,
90779,177.302734375,2836,198.0,,,
90780,177.3046875,2836,130.0,,,
90781,177.306640625,2836,41.0,,,
90782,177.30859375,2836,83.0,,,
90783,177.310546875,2836,154.0,,,
90784,177.3125,2837,85.0,,,
90785,177.314453125,2837,-37.0,,,
90786,177.31640625,2837,-49.0,,,
90787,177.318359375,2837,-25.0,,,
90788,177.3203125,2837,36.0,,,
90789,177.322265625,2837,141.0,,,
90790,177.32421875,2837,170.0,,,
90791,177.326171875,2837,124.0,,,
90792,177.328125,2837,90.0,,,
90793,177.330078125,2837,122.0,,,
90794,177.33203125,2837,123.0,,,
90795,177.333984375,2837,74.0,,,
90796,177.3359375,2837,74.0,,,
90797,177.337890625,2837,91.0,,,
90798,177.33984375,2837,117.0,,,
90799,177.341796875,2837,129.0,,,
90800,177.34375,2837,84.0,,,
90801,177.345703125,2837,-2.0,,,
90802,177.34765625,2837,0.0,,,
90803,177.349609375,2837,88.0,,,
90804,177.3515625,2837,154.0,,,
90805,177.353515625,2837,189.0,,,
90806,177.35546875,2837,161.0,,,
90807,177.357421875,2837,184.0,,,
90808,177.359375,2837,252.0,,,
90809,177.361328125,2837,264.0,,,
90810,177.36328125,2837,198.0,,,
90811,177.365234375,2837,137.0,,,
90812,177.3671875,2837,116.0,,,
90813,177.369140625,2837,52.0,,,
90814,177.37109375,2837,-1.0,,,
90815,177.373046875,2837,13.0,,,
90816,177.375,2838,37.0,,,
90817,177.376953125,2838,107.0,,,
90818,177.37890625,2838,128.0,,,
90819,177.380859375,2838,-8.0,,,
90820,177.3828125,2838,-70.0,,,
90821,177.384765625,2838,44.0,,,
90822,177.38671875,2838,146.0,,,
90823,177.388671875,2838,134.0,,,
90824,177.390625,2838,67.0,,,
90825,177.392578125,2838,-12.0,,,
90826,177.39453125,2838,3.0,,,
90827,177.396484375,2838,72.0,,,
90828,177.3984375,2838,76.0,,,
90829,177.400390625,2838,23.0,,,
90830,177.40234375,2838,6.0,,,
90831,177.404296875,2838,-4.0,,,
90832,177.40625,2838,-7.0,,,
90833,177.408203125,2838,-34.0,,,
90834,177.41015625,2838,-120.0,,,
90835,177.412109375,2838,-201.0,,,
90836,177.4140625,2838,-188.0,,,
90837,177.416015625,2838,-188.0,,,
90838,177.41796875,2838,-231.0,,,
90839,177.419921875,2838,-263.0,,,
90840,177.421875,2838,-265.0,,,
90841,177.423828125,2838,-215.0,,,
90842,177.42578125,2838,-104.0,,,
90843,177.427734375,2838,20.0,,,
90844,177.4296875,2838,-22.0,,,
90845,177.431640625,2838,-113.0,,,
90846,177.43359375,2838,-71.0,,,
90847,177.435546875,2838,27.0,,,
90848,177.4375,2839,67.0,,,
90849,177.439453125,2839,52.0,,,
90850,177.44140625,2839,17.0,,,
90851,177.443359375,2839,-30.0,,,
90852,177.4453125,2839,-17.0,,,
90853,177.447265625,2839,20.0,,,
90854,177.44921875,2839,50.0,,,
90855,177.451171875,2839,65.0,,,
90856,177.453125,2839,74.0,,,
90857,177.455078125,2839,54.0,,,
90858,177.45703125,2839,-18.0,,,
90859,177.458984375,2839,-66.0,,,
90860,177.4609375,2839,-21.0,,,
90861,177.462890625,2839,72.0,,,
90862,177.46484375,2839,199.0,,,
90863,177.466796875,2839,240.0,,,
90864,177.46875,2839,139.0,,,
90865,177.470703125,2839,17.0,,,
90866,177.47265625,2839,-12.0,,,
90867,177.474609375,2839,53.0,,,
90868,177.4765625,2839,75.0,,,
90869,177.478515625,2839,59.0,,,
90870,177.48046875,2839,96.0,,,
90871,177.482421875,2839,178.0,,,
90872,177.484375,2839,163.0,,,
90873,177.486328125,2839,104.0,,,
90874,177.48828125,2839,91.0,,,
90875,177.490234375,2839,138.0,,,
90876,177.4921875,2839,134.0,,,
90877,177.494140625,2839,77.0,,,
90878,177.49609375,2839,24.0,,,
90879,177.498046875,2839,-19.0,,,
90880,177.5,2840,-24.0,,,
90881,177.501953125,2840,55.0,,,
90882,177.50390625,2840,153.0,,,
90883,177.505859375,2840,192.0,,,
90884,177.5078125,2840,202.0,,,
90885,177.509765625,2840,182.0,,,
90886,177.51171875,2840,149.0,,,
90887,177.513671875,2840,129.0,,,
90888,177.515625,2840,59.0,,,
90889,177.517578125,2840,12.0,,,
90890,177.51953125,2840,-5.0,,,
90891,177.521484375,2840,-40.0,,,
90892,177.5234375,2840,-23.0,,,
90893,177.525390625,2840,76.0,,,
90894,177.52734375,2840,66.0,,,
90895,177.529296875,2840,-50.0,,,
90896,177.53125,2840,-74.0,,,
90897,177.533203125,2840,-84.0,,,
90898,177.53515625,2840,-105.0,,,
90899,177.537109375,2840,-105.0,,,
90900,177.5390625,2840,-87.0,,,
90901,177.541015625,2840,-38.0,,,
90902,177.54296875,2840,-25.0,,,
90903,177.544921875,2840,-106.0,,,
90904,177.546875,2840,-139.0,,,
90905,177.548828125,2840,-120.0,,,
90906,177.55078125,2840,-72.0,,,
90907,177.552734375,2840,-12.0,,,
90908,177.5546875,2840,-19.0,,,
90909,177.556640625,2840,-54.0,,,
90910,177.55859375,2840,-57.0,,,
90911,177.560546875,2840,4.0,,,
90912,177.5625,2841,82.0,,,
90913,177.564453125,2841,107.0,,,
90914,177.56640625,2841,102.0,,,
90915,177.568359375,2841,163.0,,,
90916,177.5703125,2841,160.0,,,
90917,177.572265625,2841,105.0,,,
90918,177.57421875,2841,73.0,,,
90919,177.576171875,2841,69.0,,,
90920,177.578125,2841,58.0,,,
90921,177.580078125,2841,16.0,,,
90922,177.58203125,2841,6.0,,,
90923,177.583984375,2841,69.0,,,
90924,177.5859375,2841,137.0,,,
90925,177.587890625,2841,161.0,,,
90926,177.58984375,2841,156.0,,,
90927,177.591796875,2841,80.0,,,
90928,177.59375,2841,21.0,,,
90929,177.595703125,2841,74.0,,,
90930,177.59765625,2841,129.0,,,
90931,177.599609375,2841,154.0,,,
90932,177.6015625,2841,176.0,,,
90933,177.603515625,2841,128.0,,,
90934,177.60546875,2841,73.0,,,
90935,177.607421875,2841,70.0,,,
90936,177.609375,2841,21.0,,,
90937,177.611328125,2841,17.0,,,
90938,177.61328125,2841,50.0,,,
90939,177.615234375,2841,70.0,,,
90940,177.6171875,2841,54.0,,,
90941,177.619140625,2841,1.0,,,
90942,177.62109375,2841,-89.0,,,
90943,177.623046875,2841,-161.0,,,
90944,177.625,2842,-141.0,,,
90945,177.626953125,2842,-90.0,,,
90946,177.62890625,2842,-25.0,,,
90947,177.630859375,2842,18.0,,,
90948,177.6328125,2842,-24.0,,,
90949,177.634765625,2842,-71.0,,,
90950,177.63671875,2842,-165.0,,,
90951,177.638671875,2842,-266.0,,,
90952,177.640625,2842,-253.0,,,
90953,177.642578125,2842,-195.0,,,
90954,177.64453125,2842,-167.0,,,
90955,177.646484375,2842,-193.0,,,
90956,177.6484375,2842,-173.0,,,
90957,177.650390625,2842,-129.0,,,
90958,177.65234375,2842,-150.0,,,
90959,177.654296875,2842,-161.0,,,
90960,177.65625,2842,-113.0,,,
90961,177.658203125,2842,-194.0,,,
90962,177.66015625,2842,-317.0,,,
90963,177.662109375,2842,-389.0,,,
90964,177.6640625,2842,-520.0,,,
90965,177.666015625,2842,-772.0,,,
90966,177.66796875,2842,-1027.0,,,
90967,177.669921875,2842,-1042.0,,,
90968,177.671875,2842,-935.0,,,
90969,177.673828125,2842,-850.0,,,
90970,177.67578125,2842,-884.0,,,
90971,177.677734375,2842,-1026.0,,,
90972,177.6796875,2842,-1084.0,,,
90973,177.681640625,2842,-1050.0,,,
90974,177.68359375,2842,-1093.0,,,
90975,177.685546875,2842,-1299.0,,,
90976,177.6875,2843,-1506.0,,,
90977,177.689453125,2843,-1540.0,,,
90978,177.69140625,2843,-1502.0,,,
90979,177.693359375,2843,-1577.0,,,
90980,177.6953125,2843,-1788.0,,,
90981,177.697265625,2843,-1938.0,,,
90982,177.69921875,2843,-1923.0,,,
90983,177.701171875,2843,-1821.0,,,
90984,177.703125,2843,-1771.0,,,
90985,177.705078125,2843,-1732.0,,,
90986,177.70703125,2843,-1677.0,,,
90987,177.708984375,2843,-1628.0,,,
90988,177.7109375,2843,-1614.0,,,
90989,177.712890625,2843,-1560.0,,,
90990,177.71484375,2843,-1477.0,,,
90991,177.716796875,2843,-1433.0,,,
90992,177.71875,2843,-1443.0,,,
90993,177.720703125,2843,-1429.0,,,
90994,177.72265625,2843,-1383.0,,,
90995,177.724609375,2843,-1324.0,,,
90996,177.7265625,2843,-1252.0,,,
90997,177.728515625,2843,-1165.0,,,
90998,177.73046875,2843,-1111.0,,,
90999,177.732421875,2843,-1075.0,,,
91000,177.734375,2843,-1021.0,,,
91001,177.736328125,2843,-962.0,,,
91002,177.73828125,2843,-891.0,,,
91003,177.740234375,2843,-823.0,,,
91004,177.7421875,2843,-849.0,,,
91005,177.744140625,2843,-890.0,,,
91006,177.74609375,2843,-870.0,,,
91007,177.748046875,2843,-839.0,,,
91008,177.75,2844,-798.0,,,
91009,177.751953125,2844,-728.0,,,
91010,177.75390625,2844,-663.0,,,
91011,177.755859375,2844,-637.0,,,
91012,177.7578125,2844,-632.0,,,
91013,177.759765625,2844,-614.0,,,
91014,177.76171875,2844,-532.0,,,
91015,177.763671875,2844,-347.0,,,
91016,177.765625,2844,-148.0,,,
91017,177.767578125,2844,-34.0,,,
91018,177.76953125,2844,-28.0,,,
91019,177.771484375,2844,70.0,,,
91020,177.7734375,2844,224.0,,,
91021,177.775390625,2844,258.0,,,
91022,177.77734375,2844,281.0,,,
91023,177.779296875,2844,546.0,,,
91024,177.78125,2844,839.0,,,
91025,177.783203125,2844,1100.0,,,
91026,177.78515625,2844,1530.0,,,
91027,177.787109375,2844,1676.0,,,
91028,177.7890625,2844,1873.0,,,
91029,177.791015625,2844,2047.0,,,
91030,177.79296875,2844,2047.0,,,
91031,177.794921875,2844,2047.0,,,
91032,177.796875,2844,2047.0,,,
91033,177.798828125,2844,2047.0,,,
91034,177.80078125,2844,2047.0,,,
91035,177.802734375,2844,2047.0,,,
91036,177.8046875,2844,2047.0,,,
91037,177.806640625,2844,2047.0,,,
91038,177.80859375,2844,2047.0,,,
91039,177.810546875,2844,2047.0,,,
91040,177.8125,2845,2047.0,,,
91041,177.814453125,2845,2047.0,,,
91042,177.81640625,2845,2047.0,,,
91043,177.818359375,2845,2047.0,,,
91044,177.8203125,2845,2047.0,,,
91045,177.822265625,2845,2047.0,,,
91046,177.82421875,2845,2047.0,,,
91047,177.826171875,2845,2047.0,,,
91048,177.828125,2845,2047.0,,,
91049,177.830078125,2845,2047.0,,,
91050,177.83203125,2845,2028.0,,,
91051,177.833984375,2845,1958.0,,,
91052,177.8359375,2845,1889.0,,,
91053,177.837890625,2845,1821.0,,,
91054,177.83984375,2845,1757.0,,,
91055,177.841796875,2845,1696.0,,,
91056,177.84375,2845,1636.0,,,
91057,177.845703125,2845,1577.0,,,
91058,177.84765625,2845,1523.0,,,
91059,177.849609375,2845,1467.0,,,
91060,177.8515625,2845,1416.0,,,
91061,177.853515625,2845,1366.0,,,
91062,177.85546875,2845,1317.0,,,
91063,177.857421875,2845,1270.0,,,
91064,177.859375,2845,1225.0,,,
91065,177.861328125,2845,1184.0,,,
91066,177.86328125,2845,1141.0,,,
91067,177.865234375,2845,1099.0,,,
91068,177.8671875,2845,1062.0,,,
91069,177.869140625,2845,1025.0,,,
91070,177.87109375,2845,987.0,,,
91071,177.873046875,2845,953.0,,,
91072,177.875,2846,919.0,,,
91073,177.876953125,2846,887.0,,,
91074,177.87890625,2846,856.0,,,
91075,177.880859375,2846,825.0,,,
91076,177.8828125,2846,797.0,,,
91077,177.884765625,2846,770.0,,,
91078,177.88671875,2846,743.0,,,
91079,177.888671875,2846,693.0,33552.0,177.888671875,0.0
91080,177.890625,2846,667.0,,,
91081,177.892578125,2846,646.0,,,
91082,177.89453125,2846,624.0,,,
91083,177.896484375,2846,601.0,,,
91084,177.8984375,2846,581.0,,,
91085,177.900390625,2846,562.0,,,
91086,177.90234375,2846,541.0,,,
91087,177.904296875,2846,523.0,,,
91088,177.90625,2846,505.0,,,
91089,177.908203125,2846,489.0,,,
91090,177.91015625,2846,472.0,,,
91091,177.912109375,2846,456.0,,,
91092,177.9140625,2846,441.0,,,
91093,177.916015625,2846,426.0,,,
91094,177.91796875,2846,412.0,,,
91095,177.919921875,2846,397.0,,,
91096,177.921875,2846,386.0,,,
91097,177.923828125,2846,372.0,,,
91098,177.92578125,2846,360.0,,,
91099,177.927734375,2846,347.0,,,
91100,177.9296875,2846,338.0,,,
91101,177.931640625,2846,326.0,,,
91102,177.93359375,2846,314.0,,,
91103,177.935546875,2846,306.0,,,
91104,177.9375,2847,295.0,,,
91105,177.939453125,2847,285.0,,,
91106,177.94140625,2847,277.0,,,
91107,177.943359375,2847,267.0,,,
91108,177.9453125,2847,260.0,,,
91109,177.947265625,2847,251.0,,,
91110,177.94921875,2847,244.0,,,
91111,177.951171875,2847,235.0,,,
91112,177.953125,2847,229.0,,,
91113,177.955078125,2847,221.0,,,
91114,177.95703125,2847,215.0,,,
91115,177.958984375,2847,209.0,,,
91116,177.9609375,2847,202.0,,,
91117,177.962890625,2847,197.0,,,
91118,177.96484375,2847,192.0,,,
91119,177.966796875,2847,185.0,,,
91120,177.96875,2847,180.0,,,
91121,177.970703125,2847,173.0,,,
91122,177.97265625,2847,169.0,,,
91123,177.974609375,2847,165.0,,,
91124,177.9765625,2847,161.0,,,
91125,177.978515625,2847,155.0,,,
91126,177.98046875,2847,151.0,,,
91127,177.982421875,2847,147.0,,,
91128,177.984375,2847,144.0,,,
91129,177.986328125,2847,138.0,,,
91130,177.98828125,2847,135.0,,,
91131,177.990234375,2847,132.0,,,
91132,177.9921875,2847,129.0,,,
91133,177.994140625,2847,124.0,,,
91134,177.99609375,2847,121.0,,,
91135,177.998046875,2847,118.0,,,
91136,178.0,2848,115.0,,,
91137,178.001953125,2848,113.0,,,
91138,178.00390625,2848,109.0,,,
91139,178.005859375,2848,106.0,,,
91140,178.0078125,2848,104.0,,,
91141,178.009765625,2848,102.0,,,
91142,178.01171875,2848,100.0,,,
91143,178.013671875,2848,98.0,,,
91144,178.015625,2848,96.0,,,
91145,178.017578125,2848,92.0,,,
91146,178.01953125,2848,90.0,,,
91147,178.021484375,2848,88.0,,,
91148,178.0234375,2848,87.0,,,
91149,178.025390625,2848,85.0,,,
91150,178.02734375,2848,84.0,,,
91151,178.029296875,2848,82.0,,,
91152,178.03125,2848,81.0,,,
91153,178.033203125,2848,80.0,,,
91154,178.03515625,2848,76.0,,,
91155,178.037109375,2848,74.0,,,
91156,178.0390625,2848,73.0,,,
91157,178.041015625,2848,72.0,,,
91158,178.04296875,2848,72.0,,,
91159,178.044921875,2848,71.0,,,
91160,178.046875,2848,69.0,,,
91161,178.048828125,2848,68.0,,,
91162,178.05078125,2848,68.0,,,
91163,178.052734375,2848,67.0,,,
91164,178.0546875,2848,65.0,,,
91165,178.056640625,2848,65.0,,,
91166,178.05859375,2848,64.0,,,
91167,178.060546875,2848,61.0,,,
91168,178.0625,2849,60.0,,,
91169,178.064453125,2849,59.0,,,
91170,178.06640625,2849,58.0,,,
91171,178.068359375,2849,58.0,,,
91172,178.0703125,2849,56.0,,,
91173,178.072265625,2849,56.0,,,
91174,178.07421875,2849,56.0,,,
91175,178.076171875,2849,55.0,,,
91176,178.078125,2849,54.0,,,
91177,178.080078125,2849,54.0,,,
91178,178.08203125,2849,53.0,,,
91179,178.083984375,2849,53.0,,,
91180,178.0859375,2849,52.0,,,
91181,178.087890625,2849,52.0,,,
91182,178.08984375,2849,51.0,,,
91183,178.091796875,2849,51.0,,,
91184,178.09375,2849,50.0,,,
91185,178.095703125,2849,50.0,,,
91186,178.09765625,2849,50.0,,,
91187,178.099609375,2849,50.0,,,
91188,178.1015625,2849,50.0,,,
91189,178.103515625,2849,49.0,,,
91190,178.10546875,2849,49.0,,,
91191,178.107421875,2849,50.0,,,
91192,178.109375,2849,52.0,,,
91193,178.111328125,2849,48.0,,,
91194,178.11328125,2849,-283.0,,,
91195,178.115234375,2849,-1718.0,,,
91196,178.1171875,2849,-2048.0,,,
91197,178.119140625,2849,-2048.0,,,
91198,178.12109375,2849,-2048.0,,,
91199,178.123046875,2849,-2048.0,,,
91200,178.125,2850,-2048.0,,,
91201,178.126953125,2850,-2048.0,,,
91202,178.12890625,2850,-2048.0,,,
91203,178.130859375,2850,-2048.0,,,
91204,178.1328125,2850,-2048.0,,,
91205,178.134765625,2850,-2048.0,,,
91206,178.13671875,2850,-2048.0,,,
91207,178.138671875,2850,-2048.0,,,
91208,178.140625,2850,-2048.0,,,
91209,178.142578125,2850,-2048.0,,,
91210,178.14453125,2850,-2048.0,,,
91211,178.146484375,2850,-2048.0,,,
91212,178.1484375,2850,-2048.0,,,
91213,178.150390625,2850,-2048.0,,,
91214,178.15234375,2850,-2048.0,,,
91215,178.154296875,2850,-2048.0,,,
91216,178.15625,2850,-2048.0,,,
91217,178.158203125,2850,-2048.0,,,
91218,178.16015625,2850,-2022.0,,,
91219,178.162109375,2850,-1949.0,,,
91220,178.1640625,2850,-1878.0,,,
91221,178.166015625,2850,-1810.0,,,
91222,178.16796875,2850,-1742.0,,,
91223,178.169921875,2850,-1677.0,,,
91224,178.171875,2850,-1617.0,,,
91225,178.173828125,2850,-1556.0,,,
91226,178.17578125,2850,-1497.0,,,
91227,178.177734375,2850,-1443.0,,,
91228,178.1796875,2850,-1388.0,,,
91229,178.181640625,2850,-1336.0,,,
91230,178.18359375,2850,-1286.0,,,
91231,178.185546875,2850,-1238.0,,,
91232,178.1875,2851,-1191.0,,,
91233,178.189453125,2851,-1146.0,,,
91234,178.19140625,2851,-1102.0,,,
91235,178.193359375,2851,-1062.0,,,
91236,178.1953125,2851,-1020.0,,,
91237,178.197265625,2851,-982.0,,,
91238,178.19921875,2851,-945.0,,,
91239,178.201171875,2851,-908.0,,,
91240,178.203125,2851,-874.0,,,
91241,178.205078125,2851,-840.0,,,
91242,178.20703125,2851,-809.0,,,
91243,178.208984375,2851,-777.0,,,
91244,178.2109375,2851,-747.0,,,
91245,178.212890625,2851,-721.0,,,
91246,178.21484375,2851,-692.0,,,
91247,178.216796875,2851,-664.0,,,
91248,178.21875,2851,-638.0,,,
91249,178.220703125,2851,-614.0,,,
91250,178.22265625,2851,-589.0,,,
91251,178.224609375,2851,-567.0,,,
91252,178.2265625,2851,-546.0,,,
91253,178.228515625,2851,-523.0,,,
91254,178.23046875,2851,-503.0,,,
91255,178.232421875,2851,-484.0,,,
91256,178.234375,2851,-465.0,,,
91257,178.236328125,2851,-445.0,,,
91258,178.23828125,2851,-428.0,,,
91259,178.240234375,2851,-410.0,,,
91260,178.2421875,2851,-394.0,,,
91261,178.244140625,2851,-378.0,,,
91262,178.24609375,2851,-362.0,,,
91263,178.248046875,2851,-347.0,,,
91264,178.25,2852,-333.0,,,
91265,178.251953125,2852,-321.0,,,
91266,178.25390625,2852,-308.0,,,
91267,178.255859375,2852,-295.0,,,
91268,178.2578125,2852,-282.0,,,
91269,178.259765625,2852,-270.0,,,
91270,178.26171875,2852,-260.0,,,
91271,178.263671875,2852,-248.0,,,
91272,178.265625,2852,-237.0,,,
91273,178.267578125,2852,-228.0,,,
91274,178.26953125,2852,-218.0,,,
91275,178.271484375,2852,-209.0,,,
91276,178.2734375,2852,-200.0,,,
91277,178.275390625,2852,-190.0,,,
91278,178.27734375,2852,-182.0,,,
91279,178.279296875,2852,-174.0,,,
91280,178.28125,2852,-166.0,,,
91281,178.283203125,2852,-158.0,,,
91282,178.28515625,2852,-152.0,,,
91283,178.287109375,2852,-146.0,,,
91284,178.2890625,2852,-138.0,,,
91285,178.291015625,2852,-132.0,,,
91286,178.29296875,2852,-124.0,,,
91287,178.294921875,2852,-119.0,,,
91288,178.296875,2852,-114.0,,,
91289,178.298828125,2852,-107.0,,,
91290,178.30078125,2852,-102.0,,,
91291,178.302734375,2852,-98.0,,,
91292,178.3046875,2852,-91.0,,,
91293,178.306640625,2852,-87.0,,,
91294,178.30859375,2852,-83.0,,,
91295,178.310546875,2852,-77.0,,,
91296,178.3125,2853,-74.0,,,
91297,178.314453125,2853,-70.0,,,
91298,178.31640625,2853,-66.0,,,
91299,178.318359375,2853,-60.0,,,
91300,178.3203125,2853,-58.0,,,
91301,178.322265625,2853,-54.0,,,
91302,178.32421875,2853,-51.0,,,
91303,178.326171875,2853,-49.0,,,
91304,178.328125,2853,-44.0,,,
91305,178.330078125,2853,-41.0,,,
91306,178.33203125,2853,-38.0,,,
91307,178.333984375,2853,-36.0,,,
91308,178.3359375,2853,-33.0,,,
91309,178.337890625,2853,-29.0,,,
91310,178.33984375,2853,-27.0,,,
91311,178.341796875,2853,-25.0,,,
91312,178.34375,2853,-22.0,,,
91313,178.345703125,2853,-20.0,,,
91314,178.34765625,2853,-19.0,,,
91315,178.349609375,2853,-17.0,,,
91316,178.3515625,2853,-13.0,,,
91317,178.353515625,2853,-11.0,,,
91318,178.35546875,2853,-10.0,,,
91319,178.357421875,2853,-8.0,,,
91320,178.359375,2853,-6.0,,,
91321,178.361328125,2853,-5.0,,,
91322,178.36328125,2853,-4.0,,,
91323,178.365234375,2853,-2.0,,,
91324,178.3671875,2853,-1.0,,,
91325,178.369140625,2853,1.0,,,
91326,178.37109375,2853,2.0,,,
91327,178.373046875,2853,3.0,,,
91328,178.375,2854,4.0,,,
91329,178.376953125,2854,5.0,,,
91330,178.37890625,2854,6.0,,,
91331,178.380859375,2854,7.0,,,
91332,178.3828125,2854,8.0,,,
91333,178.384765625,2854,9.0,,,
91334,178.38671875,2854,10.0,,,
91335,178.388671875,2854,11.0,,,
91336,178.390625,2854,12.0,,,
91337,178.392578125,2854,13.0,,,
91338,178.39453125,2854,13.0,,,
91339,178.396484375,2854,16.0,,,
91340,178.3984375,2854,17.0,,,
91341,178.400390625,2854,18.0,,,
91342,178.40234375,2854,18.0,,,
91343,178.404296875,2854,19.0,,,
91344,178.40625,2854,19.0,,,
91345,178.408203125,2854,20.0,,,
91346,178.41015625,2854,20.0,,,
91347,178.412109375,2854,21.0,,,
91348,178.4140625,2854,22.0,,,
91349,178.416015625,2854,22.0,,,
91350,178.41796875,2854,23.0,,,
91351,178.419921875,2854,23.0,,,
91352,178.421875,2854,24.0,,,
91353,178.423828125,2854,25.0,,,
91354,178.42578125,2854,25.0,,,
91355,178.427734375,2854,26.0,,,
91356,178.4296875,2854,26.0,,,
91357,178.431640625,2854,26.0,,,
91358,178.43359375,2854,26.0,,,
91359,178.435546875,2854,27.0,,,
91360,178.4375,2855,26.0,,,
91361,178.439453125,2855,27.0,,,
91362,178.44140625,2855,28.0,,,
91363,178.443359375,2855,27.0,,,
91364,178.4453125,2855,28.0,,,
91365,178.447265625,2855,29.0,,,
91366,178.44921875,2855,28.0,,,
91367,178.451171875,2855,29.0,,,
91368,178.453125,2855,29.0,,,
91369,178.455078125,2855,32.0,,,
91370,178.45703125,2855,32.0,,,
91371,178.458984375,2855,32.0,,,
91372,178.4609375,2855,32.0,,,
91373,178.462890625,2855,32.0,,,
91374,178.46484375,2855,33.0,,,
91375,178.466796875,2855,33.0,,,
91376,178.46875,2855,33.0,,,
91377,178.470703125,2855,33.0,,,
91378,178.47265625,2855,34.0,,,
91379,178.474609375,2855,33.0,,,
91380,178.4765625,2855,34.0,,,
91381,178.478515625,2855,34.0,,,
91382,178.48046875,2855,34.0,,,
91383,178.482421875,2855,34.0,,,
91384,178.484375,2855,34.0,,,
91385,178.486328125,2855,35.0,,,
91386,178.48828125,2855,35.0,,,
91387,178.490234375,2855,35.0,,,
91388,178.4921875,2855,35.0,,,
91389,178.494140625,2855,36.0,,,
91390,178.49609375,2855,36.0,,,
91391,178.498046875,2855,35.0,,,
91392,178.5,2856,36.0,,,
91393,178.501953125,2856,36.0,,,
91394,178.50390625,2856,36.0,,,
91395,178.505859375,2856,36.0,,,
91396,178.5078125,2856,35.0,,,
91397,178.509765625,2856,36.0,,,
91398,178.51171875,2856,36.0,,,
91399,178.513671875,2856,36.0,,,
91400,178.515625,2856,36.0,,,
91401,178.517578125,2856,36.0,,,
91402,178.51953125,2856,36.0,,,
91403,178.521484375,2856,36.0,,,
91404,178.5234375,2856,36.0,,,
91405,178.525390625,2856,36.0,,,
91406,178.52734375,2856,37.0,,,
91407,178.529296875,2856,37.0,,,
91408,178.53125,2856,37.0,,,
91409,178.533203125,2856,37.0,,,
91410,178.53515625,2856,36.0,,,
91411,178.537109375,2856,36.0,,,
91412,178.5390625,2856,37.0,,,
91413,178.541015625,2856,37.0,,,
91414,178.54296875,2856,37.0,,,
91415,178.544921875,2856,37.0,,,
91416,178.546875,2856,37.0,,,
91417,178.548828125,2856,36.0,,,
91418,178.55078125,2856,36.0,,,
91419,178.552734375,2856,36.0,,,
91420,178.5546875,2856,37.0,,,
91421,178.556640625,2856,37.0,,,
91422,178.55859375,2856,37.0,,,
91423,178.560546875,2856,37.0,,,
91424,178.5625,2857,37.0,,,
91425,178.564453125,2857,38.0,,,
91426,178.56640625,2857,37.0,,,
91427,178.568359375,2857,37.0,,,
91428,178.5703125,2857,37.0,,,
91429,178.572265625,2857,37.0,,,
91430,178.57421875,2857,38.0,,,
91431,178.576171875,2857,37.0,,,
91432,178.578125,2857,37.0,,,
91433,178.580078125,2857,38.0,,,
91434,178.58203125,2857,38.0,,,
91435,178.583984375,2857,37.0,,,
91436,178.5859375,2857,38.0,,,
91437,178.587890625,2857,38.0,,,
91438,178.58984375,2857,37.0,,,
91439,178.591796875,2857,38.0,,,
91440,178.59375,2857,38.0,,,
91441,178.595703125,2857,38.0,,,
91442,178.59765625,2857,38.0,,,
91443,178.599609375,2857,37.0,,,
91444,178.6015625,2857,38.0,,,
91445,178.603515625,2857,38.0,,,
91446,178.60546875,2857,37.0,,,
91447,178.607421875,2857,38.0,,,
91448,178.609375,2857,38.0,,,
91449,178.611328125,2857,37.0,,,
91450,178.61328125,2857,37.0,,,
91451,178.615234375,2857,38.0,,,
91452,178.6171875,2857,38.0,,,
91453,178.619140625,2857,38.0,,,
91454,178.62109375,2857,38.0,,,
91455,178.623046875,2857,38.0,,,
91456,178.625,2858,38.0,,,
91457,178.626953125,2858,38.0,,,
91458,178.62890625,2858,38.0,,,
91459,178.630859375,2858,38.0,,,
91460,178.6328125,2858,38.0,,,
91461,178.634765625,2858,38.0,,,
91462,178.63671875,2858,38.0,,,
91463,178.638671875,2858,38.0,,,
91464,178.640625,2858,38.0,,,
91465,178.642578125,2858,38.0,,,
91466,178.64453125,2858,38.0,,,
91467,178.646484375,2858,38.0,,,
91468,178.6484375,2858,38.0,,,
91469,178.650390625,2858,37.0,,,
91470,178.65234375,2858,38.0,,,
91471,178.654296875,2858,38.0,,,
91472,178.65625,2858,38.0,,,
91473,178.658203125,2858,38.0,,,
91474,178.66015625,2858,37.0,,,
91475,178.662109375,2858,38.0,,,
91476,178.6640625,2858,38.0,,,
91477,178.666015625,2858,38.0,,,
91478,178.66796875,2858,38.0,,,
91479,178.669921875,2858,38.0,,,
91480,178.671875,2858,38.0,,,
91481,178.673828125,2858,38.0,,,
91482,178.67578125,2858,38.0,,,
91483,178.677734375,2858,38.0,,,
91484,178.6796875,2858,38.0,,,
91485,178.681640625,2858,38.0,,,
91486,178.68359375,2858,38.0,,,
91487,178.685546875,2858,38.0,,,
91488,178.6875,2859,38.0,,,
91489,178.689453125,2859,38.0,,,
91490,178.69140625,2859,38.0,,,
91491,178.693359375,2859,38.0,,,
91492,178.6953125,2859,38.0,,,
91493,178.697265625,2859,38.0,,,
91494,178.69921875,2859,38.0,,,
91495,178.701171875,2859,38.0,,,
91496,178.703125,2859,38.0,,,
91497,178.705078125,2859,38.0,,,
91498,178.70703125,2859,38.0,,,
91499,178.708984375,2859,38.0,,,
91500,178.7109375,2859,38.0,,,
91501,178.712890625,2859,38.0,,,
91502,178.71484375,2859,38.0,,,
91503,178.716796875,2859,38.0,,,
91504,178.71875,2859,38.0,,,
91505,178.720703125,2859,38.0,,,
91506,178.72265625,2859,38.0,,,
91507,178.724609375,2859,37.0,,,
91508,178.7265625,2859,38.0,,,
91509,178.728515625,2859,38.0,,,
91510,178.73046875,2859,38.0,,,
91511,178.732421875,2859,38.0,,,
91512,178.734375,2859,38.0,,,
91513,178.736328125,2859,38.0,,,
91514,178.73828125,2859,38.0,,,
91515,178.740234375,2859,38.0,,,
91516,178.7421875,2859,38.0,,,
91517,178.744140625,2859,38.0,,,
91518,178.74609375,2859,38.0,,,
91519,178.748046875,2859,38.0,,,
91520,178.75,2860,39.0,,,
91521,178.751953125,2860,38.0,,,
91522,178.75390625,2860,38.0,,,
91523,178.755859375,2860,38.0,,,
91524,178.7578125,2860,38.0,,,
91525,178.759765625,2860,38.0,,,
91526,178.76171875,2860,38.0,,,
91527,178.763671875,2860,38.0,,,
91528,178.765625,2860,38.0,,,
91529,178.767578125,2860,38.0,,,
91530,178.76953125,2860,38.0,,,
91531,178.771484375,2860,38.0,,,
91532,178.7734375,2860,38.0,,,
91533,178.775390625,2860,38.0,,,
91534,178.77734375,2860,38.0,,,
91535,178.779296875,2860,38.0,,,
91536,178.78125,2860,38.0,,,
91537,178.783203125,2860,38.0,,,
91538,178.78515625,2860,37.0,,,
91539,178.787109375,2860,38.0,,,
91540,178.7890625,2860,38.0,,,
91541,178.791015625,2860,38.0,,,
91542,178.79296875,2860,38.0,,,
91543,178.794921875,2860,38.0,,,
91544,178.796875,2860,38.0,,,
91545,178.798828125,2860,37.0,,,
91546,178.80078125,2860,38.0,,,
91547,178.802734375,2860,37.0,,,
91548,178.8046875,2860,37.0,,,
91549,178.806640625,2860,38.0,,,
91550,178.80859375,2860,38.0,,,
91551,178.810546875,2860,38.0,,,
91552,178.8125,2861,38.0,,,
91553,178.814453125,2861,38.0,,,
91554,178.81640625,2861,37.0,,,
91555,178.818359375,2861,38.0,,,
91556,178.8203125,2861,38.0,,,
91557,178.822265625,2861,38.0,,,
91558,178.82421875,2861,38.0,,,
91559,178.826171875,2861,38.0,,,
91560,178.828125,2861,38.0,,,
91561,178.830078125,2861,38.0,,,
91562,178.83203125,2861,38.0,,,
91563,178.833984375,2861,37.0,,,
91564,178.8359375,2861,38.0,,,
91565,178.837890625,2861,38.0,,,
91566,178.83984375,2861,38.0,,,
91567,178.841796875,2861,37.0,,,
91568,178.84375,2861,38.0,,,
91569,178.845703125,2861,38.0,,,
91570,178.84765625,2861,38.0,,,
91571,178.849609375,2861,38.0,,,
91572,178.8515625,2861,38.0,,,
91573,178.853515625,2861,37.0,,,
91574,178.85546875,2861,38.0,,,
91575,178.857421875,2861,38.0,,,
91576,178.859375,2861,38.0,,,
91577,178.861328125,2861,38.0,,,
91578,178.86328125,2861,38.0,,,
91579,178.865234375,2861,38.0,,,
91580,178.8671875,2861,38.0,,,
91581,178.869140625,2861,39.0,,,
91582,178.87109375,2861,38.0,,,
91583,178.873046875,2861,38.0,,,
91584,178.875,2862,38.0,,,
91585,178.876953125,2862,38.0,,,
91586,178.87890625,2862,38.0,,,
91587,178.880859375,2862,38.0,,,
91588,178.8828125,2862,38.0,,,
91589,178.884765625,2862,38.0,,,
91590,178.88671875,2862,38.0,33553.0,178.88671875,0.001953125
91591,178.888671875,2862,38.0,33554.0,178.888671875,0.0
91592,178.890625,2862,38.0,,,
91593,178.892578125,2862,38.0,,,
91594,178.89453125,2862,38.0,,,
91595,178.896484375,2862,38.0,,,
91596,178.8984375,2862,38.0,,,
91597,178.900390625,2862,38.0,,,
91598,178.90234375,2862,38.0,,,
91599,178.904296875,2862,38.0,,,
91600,178.90625,2862,38.0,,,
91601,178.908203125,2862,38.0,,,
91602,178.91015625,2862,38.0,,,
91603,178.912109375,2862,38.0,,,
91604,178.9140625,2862,38.0,,,
91605,178.916015625,2862,38.0,,,
91606,178.91796875,2862,39.0,,,
91607,178.919921875,2862,38.0,,,
91608,178.921875,2862,38.0,,,
91609,178.923828125,2862,38.0,,,
91610,178.92578125,2862,38.0,,,
91611,178.927734375,2862,38.0,,,
91612,178.9296875,2862,38.0,,,
91613,178.931640625,2862,38.0,,,
91614,178.93359375,2862,38.0,,,
91615,178.935546875,2862,38.0,,,
91616,178.9375,2863,38.0,,,
91617,178.939453125,2863,38.0,,,
91618,178.94140625,2863,39.0,,,
91619,178.943359375,2863,38.0,,,
91620,178.9453125,2863,38.0,,,
91621,178.947265625,2863,38.0,,,
91622,178.94921875,2863,38.0,,,
91623,178.951171875,2863,38.0,,,
91624,178.953125,2863,38.0,,,
91625,178.955078125,2863,38.0,,,
91626,178.95703125,2863,38.0,,,
91627,178.958984375,2863,38.0,,,
91628,178.9609375,2863,38.0,,,
91629,178.962890625,2863,38.0,,,
91630,178.96484375,2863,38.0,,,
91631,178.966796875,2863,38.0,,,
91632,178.96875,2863,38.0,,,
91633,178.970703125,2863,38.0,,,
91634,178.97265625,2863,38.0,,,
91635,178.974609375,2863,38.0,,,
91636,178.9765625,2863,38.0,,,
91637,178.978515625,2863,38.0,,,
91638,178.98046875,2863,37.0,,,
91639,178.982421875,2863,38.0,,,
91640,178.984375,2863,38.0,,,
91641,178.986328125,2863,38.0,,,
91642,178.98828125,2863,38.0,,,
91643,178.990234375,2863,38.0,,,
91644,178.9921875,2863,39.0,,,
91645,178.994140625,2863,38.0,,,
91646,178.99609375,2863,38.0,,,
91647,178.998046875,2863,38.0,,,
91648,179.0,2864,38.0,,,
91649,179.001953125,2864,38.0,,,
91650,179.00390625,2864,38.0,,,
91651,179.005859375,2864,38.0,,,
91652,179.0078125,2864,38.0,,,
91653,179.009765625,2864,38.0,,,
91654,179.01171875,2864,38.0,,,
91655,179.013671875,2864,38.0,,,
91656,179.015625,2864,38.0,,,
91657,179.017578125,2864,38.0,,,
91658,179.01953125,2864,38.0,,,
91659,179.021484375,2864,38.0,,,
91660,179.0234375,2864,38.0,,,
91661,179.025390625,2864,38.0,,,
91662,179.02734375,2864,38.0,,,
91663,179.029296875,2864,38.0,,,
91664,179.03125,2864,38.0,,,
91665,179.033203125,2864,38.0,,,
91666,179.03515625,2864,38.0,,,
91667,179.037109375,2864,38.0,,,
91668,179.0390625,2864,38.0,,,
91669,179.041015625,2864,38.0,,,
91670,179.04296875,2864,38.0,,,
91671,179.044921875,2864,38.0,,,
91672,179.046875,2864,38.0,,,
91673,179.048828125,2864,38.0,,,
91674,179.05078125,2864,38.0,,,
91675,179.052734375,2864,38.0,,,
91676,179.0546875,2864,38.0,,,
91677,179.056640625,2864,38.0,,,
91678,179.05859375,2864,38.0,,,
91679,179.060546875,2864,38.0,,,
91680,179.0625,2865,38.0,,,
91681,179.064453125,2865,38.0,,,
91682,179.06640625,2865,38.0,,,
91683,179.068359375,2865,38.0,,,
91684,179.0703125,2865,38.0,,,
91685,179.072265625,2865,38.0,,,
91686,179.07421875,2865,38.0,,,
91687,179.076171875,2865,38.0,,,
91688,179.078125,2865,38.0,,,
91689,179.080078125,2865,38.0,,,
91690,179.08203125,2865,38.0,,,
91691,179.083984375,2865,38.0,,,
91692,179.0859375,2865,38.0,,,
91693,179.087890625,2865,38.0,,,
91694,179.08984375,2865,38.0,,,
91695,179.091796875,2865,38.0,,,
91696,179.09375,2865,38.0,,,
91697,179.095703125,2865,38.0,,,
91698,179.09765625,2865,38.0,,,
91699,179.099609375,2865,38.0,,,
91700,179.1015625,2865,37.0,,,
91701,179.103515625,2865,37.0,,,
91702,179.10546875,2865,38.0,,,
91703,179.107421875,2865,38.0,,,
91704,179.109375,2865,38.0,,,
91705,179.111328125,2865,38.0,,,
91706,179.11328125,2865,38.0,,,
91707,179.115234375,2865,38.0,,,
91708,179.1171875,2865,38.0,,,
91709,179.119140625,2865,38.0,,,
91710,179.12109375,2865,38.0,,,
91711,179.123046875,2865,38.0,,,
91712,179.125,2866,38.0,,,
91713,179.126953125,2866,38.0,,,
91714,179.12890625,2866,38.0,,,
91715,179.130859375,2866,37.0,,,
91716,179.1328125,2866,38.0,,,
91717,179.134765625,2866,38.0,,,
91718,179.13671875,2866,38.0,,,
91719,179.138671875,2866,38.0,,,
91720,179.140625,2866,38.0,,,
91721,179.142578125,2866,38.0,,,
91722,179.14453125,2866,38.0,,,
91723,179.146484375,2866,37.0,,,
91724,179.1484375,2866,38.0,,,
91725,179.150390625,2866,38.0,,,
91726,179.15234375,2866,38.0,,,
91727,179.154296875,2866,38.0,,,
91728,179.15625,2866,38.0,,,
91729,179.158203125,2866,38.0,,,
91730,179.16015625,2866,38.0,,,
91731,179.162109375,2866,38.0,,,
91732,179.1640625,2866,38.0,,,
91733,179.166015625,2866,38.0,,,
91734,179.16796875,2866,38.0,,,
91735,179.169921875,2866,38.0,,,
91736,179.171875,2866,38.0,,,
91737,179.173828125,2866,38.0,,,
91738,179.17578125,2866,38.0,,,
91739,179.177734375,2866,38.0,,,
91740,179.1796875,2866,38.0,,,
91741,179.181640625,2866,38.0,,,
91742,179.18359375,2866,38.0,,,
91743,179.185546875,2866,38.0,,,
91744,179.1875,2867,38.0,,,
91745,179.189453125,2867,38.0,,,
91746,179.19140625,2867,38.0,,,
91747,179.193359375,2867,38.0,,,
91748,179.1953125,2867,37.0,,,
91749,179.197265625,2867,38.0,,,
91750,179.19921875,2867,38.0,,,
91751,179.201171875,2867,38.0,,,
91752,179.203125,2867,38.0,,,
91753,179.205078125,2867,38.0,,,
91754,179.20703125,2867,38.0,,,
91755,179.208984375,2867,38.0,,,
91756,179.2109375,2867,38.0,,,
91757,179.212890625,2867,38.0,,,
91758,179.21484375,2867,38.0,,,
91759,179.216796875,2867,38.0,,,
91760,179.21875,2867,38.0,,,
91761,179.220703125,2867,38.0,,,
91762,179.22265625,2867,38.0,,,
91763,179.224609375,2867,38.0,,,
91764,179.2265625,2867,38.0,,,
91765,179.228515625,2867,38.0,,,
91766,179.23046875,2867,38.0,,,
91767,179.232421875,2867,38.0,,,
91768,179.234375,2867,38.0,,,
91769,179.236328125,2867,38.0,,,
91770,179.23828125,2867,38.0,,,
91771,179.240234375,2867,38.0,,,
91772,179.2421875,2867,38.0,,,
91773,179.244140625,2867,38.0,,,
91774,179.24609375,2867,38.0,,,
91775,179.248046875,2867,38.0,,,
91776,179.25,2868,38.0,,,
91777,179.251953125,2868,38.0,,,
91778,179.25390625,2868,38.0,,,
91779,179.255859375,2868,37.0,,,
91780,179.2578125,2868,38.0,,,
91781,179.259765625,2868,38.0,,,
91782,179.26171875,2868,38.0,,,
91783,179.263671875,2868,38.0,33553.0,179.263671875,0.001953125
91784,179.265625,2868,38.0,33554.0,179.265625,0.0
91785,179.267578125,2868,38.0,,,
91786,179.26953125,2868,38.0,,,
91787,179.271484375,2868,38.0,,,
91788,179.2734375,2868,38.0,,,
91789,179.275390625,2868,38.0,,,
91790,179.27734375,2868,38.0,,,
91791,179.279296875,2868,38.0,,,
91792,179.28125,2868,38.0,,,
91793,179.283203125,2868,38.0,,,
91794,179.28515625,2868,38.0,,,
91795,179.287109375,2868,38.0,,,
91796,179.2890625,2868,38.0,,,
91797,179.291015625,2868,38.0,,,
91798,179.29296875,2868,39.0,,,
91799,179.294921875,2868,38.0,,,
91800,179.296875,2868,38.0,,,
91801,179.298828125,2868,38.0,,,
91802,179.30078125,2868,38.0,,,
91803,179.302734375,2868,38.0,,,
91804,179.3046875,2868,38.0,,,
91805,179.306640625,2868,38.0,,,
91806,179.30859375,2868,38.0,,,
91807,179.310546875,2868,38.0,,,
91808,179.3125,2869,38.0,,,
91809,179.314453125,2869,38.0,,,
91810,179.31640625,2869,38.0,,,
91811,179.318359375,2869,38.0,,,
91812,179.3203125,2869,38.0,,,
91813,179.322265625,2869,38.0,,,
91814,179.32421875,2869,38.0,,,
91815,179.326171875,2869,38.0,,,
91816,179.328125,2869,38.0,,,
91817,179.330078125,2869,38.0,,,
91818,179.33203125,2869,38.0,,,
91819,179.333984375,2869,38.0,,,
91820,179.3359375,2869,38.0,,,
91821,179.337890625,2869,38.0,,,
91822,179.33984375,2869,38.0,,,
91823,179.341796875,2869,38.0,,,
91824,179.34375,2869,38.0,,,
91825,179.345703125,2869,38.0,,,
91826,179.34765625,2869,38.0,,,
91827,179.349609375,2869,38.0,,,
91828,179.3515625,2869,38.0,,,
91829,179.353515625,2869,39.0,,,
91830,179.35546875,2869,38.0,,,
91831,179.357421875,2869,38.0,,,
91832,179.359375,2869,38.0,,,
91833,179.361328125,2869,38.0,,,
91834,179.36328125,2869,38.0,,,
91835,179.365234375,2869,38.0,,,
91836,179.3671875,2869,38.0,,,
91837,179.369140625,2869,38.0,,,
91838,179.37109375,2869,38.0,,,
91839,179.373046875,2869,38.0,,,
91840,179.375,2870,38.0,,,
91841,179.376953125,2870,38.0,,,
91842,179.37890625,2870,38.0,,,
91843,179.380859375,2870,38.0,,,
91844,179.3828125,2870,38.0,,,
91845,179.384765625,2870,38.0,,,
91846,179.38671875,2870,38.0,,,
91847,179.388671875,2870,38.0,,,
91848,179.390625,2870,38.0,,,
91849,179.392578125,2870,38.0,,,
91850,179.39453125,2870,38.0,,,
91851,179.396484375,2870,38.0,,,
91852,179.3984375,2870,38.0,,,
91853,179.400390625,2870,38.0,,,
91854,179.40234375,2870,37.0,,,
91855,179.404296875,2870,38.0,,,
91856,179.40625,2870,38.0,,,
91857,179.408203125,2870,38.0,,,
91858,179.41015625,2870,38.0,,,
91859,179.412109375,2870,39.0,,,
91860,179.4140625,2870,39.0,,,
91861,179.416015625,2870,38.0,,,
91862,179.41796875,2870,38.0,,,
91863,179.419921875,2870,38.0,,,
91864,179.421875,2870,38.0,,,
91865,179.423828125,2870,38.0,,,
91866,179.42578125,2870,39.0,,,
91867,179.427734375,2870,38.0,,,
91868,179.4296875,2870,38.0,,,
91869,179.431640625,2870,38.0,,,
91870,179.43359375,2870,38.0,,,
91871,179.435546875,2870,38.0,,,
91872,179.4375,2871,38.0,,,
91873,179.439453125,2871,38.0,,,
91874,179.44140625,2871,38.0,,,
91875,179.443359375,2871,38.0,,,
91876,179.4453125,2871,38.0,,,
91877,179.447265625,2871,37.0,,,
91878,179.44921875,2871,38.0,,,
91879,179.451171875,2871,38.0,,,
91880,179.453125,2871,38.0,,,
91881,179.455078125,2871,38.0,,,
91882,179.45703125,2871,38.0,,,
91883,179.458984375,2871,38.0,,,
91884,179.4609375,2871,38.0,,,
91885,179.462890625,2871,38.0,,,
91886,179.46484375,2871,38.0,,,
91887,179.466796875,2871,38.0,,,
91888,179.46875,2871,38.0,,,
91889,179.470703125,2871,38.0,,,
91890,179.47265625,2871,38.0,,,
91891,179.474609375,2871,38.0,,,
91892,179.4765625,2871,38.0,,,
91893,179.478515625,2871,38.0,,,
91894,179.48046875,2871,38.0,,,
91895,179.482421875,2871,38.0,,,
91896,179.484375,2871,38.0,,,
91897,179.486328125,2871,38.0,,,
91898,179.48828125,2871,38.0,,,
91899,179.490234375,2871,38.0,,,
91900,179.4921875,2871,38.0,,,
91901,179.494140625,2871,38.0,,,
91902,179.49609375,2871,38.0,,,
91903,179.498046875,2871,38.0,,,
91904,179.5,2872,38.0,,,
91905,179.501953125,2872,38.0,,,
91906,179.50390625,2872,38.0,,,
91907,179.505859375,2872,38.0,,,
91908,179.5078125,2872,38.0,,,
91909,179.509765625,2872,38.0,,,
91910,179.51171875,2872,38.0,,,
91911,179.513671875,2872,38.0,,,
91912,179.515625,2872,38.0,,,
91913,179.517578125,2872,38.0,,,
91914,179.51953125,2872,38.0,,,
91915,179.521484375,2872,38.0,,,
91916,179.5234375,2872,38.0,,,
91917,179.525390625,2872,38.0,,,
91918,179.52734375,2872,38.0,,,
91919,179.529296875,2872,38.0,,,
91920,179.53125,2872,38.0,,,
91921,179.533203125,2872,38.0,,,
91922,179.53515625,2872,38.0,,,
91923,179.537109375,2872,38.0,,,
91924,179.5390625,2872,38.0,,,
91925,179.541015625,2872,38.0,,,
91926,179.54296875,2872,38.0,,,
91927,179.544921875,2872,38.0,,,
91928,179.546875,2872,39.0,,,
91929,179.548828125,2872,38.0,,,
91930,179.55078125,2872,38.0,,,
91931,179.552734375,2872,38.0,,,
91932,179.5546875,2872,38.0,,,
91933,179.556640625,2872,38.0,,,
91934,179.55859375,2872,38.0,,,
91935,179.560546875,2872,38.0,,,
91936,179.5625,2873,38.0,,,
91937,179.564453125,2873,38.0,,,
91938,179.56640625,2873,37.0,,,
91939,179.568359375,2873,38.0,,,
91940,179.5703125,2873,38.0,,,
91941,179.572265625,2873,39.0,,,
91942,179.57421875,2873,38.0,,,
91943,179.576171875,2873,38.0,,,
91944,179.578125,2873,38.0,,,
91945,179.580078125,2873,38.0,,,
91946,179.58203125,2873,38.0,,,
91947,179.583984375,2873,38.0,,,
91948,179.5859375,2873,38.0,,,
91949,179.587890625,2873,38.0,,,
91950,179.58984375,2873,38.0,,,
91951,179.591796875,2873,38.0,,,
91952,179.59375,2873,38.0,,,
91953,179.595703125,2873,38.0,,,
91954,179.59765625,2873,38.0,,,
91955,179.599609375,2873,38.0,,,
91956,179.6015625,2873,38.0,,,
91957,179.603515625,2873,38.0,,,
91958,179.60546875,2873,38.0,,,
91959,179.607421875,2873,38.0,,,
91960,179.609375,2873,38.0,,,
91961,179.611328125,2873,38.0,,,
91962,179.61328125,2873,38.0,,,
91963,179.615234375,2873,38.0,,,
91964,179.6171875,2873,38.0,,,
91965,179.619140625,2873,38.0,,,
91966,179.62109375,2873,38.0,,,
91967,179.623046875,2873,38.0,,,
91968,179.625,2874,38.0,,,
91969,179.626953125,2874,38.0,,,
91970,179.62890625,2874,38.0,,,
91971,179.630859375,2874,38.0,,,
91972,179.6328125,2874,38.0,,,
91973,179.634765625,2874,38.0,,,
91974,179.63671875,2874,38.0,,,
91975,179.638671875,2874,38.0,,,
91976,179.640625,2874,39.0,,,
91977,179.642578125,2874,38.0,,,
91978,179.64453125,2874,38.0,,,
91979,179.646484375,2874,38.0,,,
91980,179.6484375,2874,38.0,,,
91981,179.650390625,2874,38.0,,,
91982,179.65234375,2874,38.0,,,
91983,179.654296875,2874,39.0,,,
91984,179.65625,2874,38.0,,,
91985,179.658203125,2874,38.0,,,
91986,179.66015625,2874,38.0,,,
91987,179.662109375,2874,39.0,,,
91988,179.6640625,2874,38.0,,,
91989,179.666015625,2874,39.0,,,
91990,179.66796875,2874,39.0,,,
91991,179.669921875,2874,39.0,,,
91992,179.671875,2874,39.0,,,
91993,179.673828125,2874,38.0,,,
91994,179.67578125,2874,38.0,,,
91995,179.677734375,2874,38.0,,,
91996,179.6796875,2874,38.0,,,
91997,179.681640625,2874,38.0,,,
91998,179.68359375,2874,38.0,,,
91999,179.685546875,2874,38.0,,,
92000,179.6875,2875,38.0,,,
92001,179.689453125,2875,38.0,,,
92002,179.69140625,2875,38.0,,,
92003,179.693359375,2875,38.0,,,
92004,179.6953125,2875,38.0,,,
92005,179.697265625,2875,38.0,,,
92006,179.69921875,2875,38.0,,,
92007,179.701171875,2875,38.0,,,
92008,179.703125,2875,38.0,,,
92009,179.705078125,2875,38.0,,,
92010,179.70703125,2875,38.0,,,
92011,179.708984375,2875,38.0,,,
92012,179.7109375,2875,38.0,,,
92013,179.712890625,2875,38.0,,,
92014,179.71484375,2875,38.0,,,
92015,179.716796875,2875,38.0,,,
92016,179.71875,2875,39.0,,,
92017,179.720703125,2875,38.0,,,
92018,179.72265625,2875,38.0,,,
92019,179.724609375,2875,38.0,,,
92020,179.7265625,2875,38.0,,,
92021,179.728515625,2875,38.0,,,
92022,179.73046875,2875,39.0,,,
92023,179.732421875,2875,38.0,,,
92024,179.734375,2875,38.0,,,
92025,179.736328125,2875,38.0,,,
92026,179.73828125,2875,38.0,,,
92027,179.740234375,2875,38.0,,,
92028,179.7421875,2875,38.0,,,
92029,179.744140625,2875,38.0,,,
92030,179.74609375,2875,38.0,,,
92031,179.748046875,2875,38.0,,,
92032,179.75,2876,38.0,,,
92033,179.751953125,2876,38.0,,,
92034,179.75390625,2876,38.0,,,
92035,179.755859375,2876,38.0,,,
92036,179.7578125,2876,38.0,,,
92037,179.759765625,2876,38.0,,,
92038,179.76171875,2876,38.0,,,
92039,179.763671875,2876,38.0,,,
92040,179.765625,2876,38.0,,,
92041,179.767578125,2876,38.0,,,
92042,179.76953125,2876,38.0,,,
92043,179.771484375,2876,38.0,,,
92044,179.7734375,2876,38.0,,,
92045,179.775390625,2876,38.0,,,
92046,179.77734375,2876,38.0,,,
92047,179.779296875,2876,38.0,,,
92048,179.78125,2876,39.0,,,
92049,179.783203125,2876,38.0,,,
92050,179.78515625,2876,38.0,,,
92051,179.787109375,2876,38.0,,,
92052,179.7890625,2876,38.0,,,
92053,179.791015625,2876,38.0,,,
92054,179.79296875,2876,38.0,,,
92055,179.794921875,2876,38.0,,,
92056,179.796875,2876,38.0,,,
92057,179.798828125,2876,38.0,,,
92058,179.80078125,2876,38.0,,,
92059,179.802734375,2876,39.0,,,
92060,179.8046875,2876,38.0,,,
92061,179.806640625,2876,38.0,,,
92062,179.80859375,2876,38.0,,,
92063,179.810546875,2876,38.0,,,
92064,179.8125,2877,38.0,,,
92065,179.814453125,2877,38.0,,,
92066,179.81640625,2877,39.0,,,
92067,179.818359375,2877,38.0,,,
92068,179.8203125,2877,38.0,,,
92069,179.822265625,2877,38.0,,,
92070,179.82421875,2877,38.0,,,
92071,179.826171875,2877,38.0,,,
92072,179.828125,2877,38.0,,,
92073,179.830078125,2877,38.0,,,
92074,179.83203125,2877,38.0,,,
92075,179.833984375,2877,38.0,,,
92076,179.8359375,2877,39.0,,,
92077,179.837890625,2877,38.0,,,
92078,179.83984375,2877,38.0,,,
92079,179.841796875,2877,38.0,,,
92080,179.84375,2877,38.0,,,
92081,179.845703125,2877,38.0,,,
92082,179.84765625,2877,38.0,,,
92083,179.849609375,2877,38.0,,,
92084,179.8515625,2877,38.0,,,
92085,179.853515625,2877,38.0,,,
92086,179.85546875,2877,38.0,,,
92087,179.857421875,2877,38.0,,,
92088,179.859375,2877,38.0,,,
92089,179.861328125,2877,38.0,,,
92090,179.86328125,2877,37.0,,,
92091,179.865234375,2877,38.0,,,
92092,179.8671875,2877,38.0,,,
92093,179.869140625,2877,37.0,,,
92094,179.87109375,2877,38.0,,,
92095,179.873046875,2877,38.0,,,
92096,179.875,2878,38.0,,,
92097,179.876953125,2878,38.0,,,
92098,179.87890625,2878,38.0,,,
92099,179.880859375,2878,38.0,,,
92100,179.8828125,2878,38.0,,,
92101,179.884765625,2878,38.0,,,
92102,179.88671875,2878,38.0,,,
92103,179.888671875,2878,38.0,,,
92104,179.890625,2878,38.0,33552.0,179.890625,0.0
92105,179.892578125,2878,38.0,,,
92106,179.89453125,2878,38.0,,,
92107,179.896484375,2878,37.0,,,
92108,179.8984375,2878,38.0,,,
92109,179.900390625,2878,38.0,,,
92110,179.90234375,2878,38.0,,,
92111,179.904296875,2878,38.0,,,
92112,179.90625,2878,38.0,,,
92113,179.908203125,2878,38.0,,,
92114,179.91015625,2878,38.0,,,
92115,179.912109375,2878,38.0,,,
92116,179.9140625,2878,38.0,,,
92117,179.916015625,2878,38.0,,,
92118,179.91796875,2878,38.0,,,
92119,179.919921875,2878,38.0,,,
92120,179.921875,2878,37.0,,,
92121,179.923828125,2878,38.0,,,
92122,179.92578125,2878,38.0,,,
92123,179.927734375,2878,38.0,,,
92124,179.9296875,2878,38.0,,,
92125,179.931640625,2878,38.0,,,
92126,179.93359375,2878,38.0,,,
92127,179.935546875,2878,38.0,,,
92128,179.9375,2879,38.0,,,
92129,179.939453125,2879,38.0,,,
92130,179.94140625,2879,38.0,,,
92131,179.943359375,2879,38.0,,,
92132,179.9453125,2879,38.0,,,
92133,179.947265625,2879,38.0,,,
92134,179.94921875,2879,38.0,,,
92135,179.951171875,2879,38.0,,,
92136,179.953125,2879,38.0,,,
92137,179.955078125,2879,38.0,,,
92138,179.95703125,2879,38.0,,,
92139,179.958984375,2879,38.0,,,
92140,179.9609375,2879,38.0,,,
92141,179.962890625,2879,38.0,,,
92142,179.96484375,2879,38.0,,,
92143,179.966796875,2879,39.0,,,
92144,179.96875,2879,38.0,,,
92145,179.970703125,2879,38.0,,,
92146,179.97265625,2879,38.0,,,
92147,179.974609375,2879,38.0,,,
92148,179.9765625,2879,38.0,,,
92149,179.978515625,2879,38.0,,,
92150,179.98046875,2879,38.0,,,
92151,179.982421875,2879,38.0,,,
92152,179.984375,2879,38.0,,,
92153,179.986328125,2879,38.0,,,
92154,179.98828125,2879,38.0,,,
92155,179.990234375,2879,38.0,,,
92156,179.9921875,2879,38.0,,,
92157,179.994140625,2879,38.0,,,
92158,179.99609375,2879,38.0,,,
92159,179.998046875,2879,38.0,,,
92160,180.0,2880,38.0,,,
92161,180.001953125,2880,38.0,,,
92162,180.00390625,2880,38.0,,,
92163,180.005859375,2880,38.0,,,
92164,180.0078125,2880,38.0,,,
92165,180.009765625,2880,38.0,,,
92166,180.01171875,2880,38.0,,,
92167,180.013671875,2880,38.0,,,
92168,180.015625,2880,38.0,,,
92169,180.017578125,2880,38.0,,,
92170,180.01953125,2880,38.0,,,
92171,180.021484375,2880,38.0,,,
92172,180.0234375,2880,39.0,,,
92173,180.025390625,2880,39.0,,,
92174,180.02734375,2880,38.0,,,
92175,180.029296875,2880,38.0,,,
92176,180.03125,2880,38.0,,,
92177,180.033203125,2880,38.0,,,
92178,180.03515625,2880,38.0,,,
92179,180.037109375,2880,38.0,,,
92180,180.0390625,2880,39.0,,,
92181,180.041015625,2880,38.0,,,
92182,180.04296875,2880,39.0,,,
92183,180.044921875,2880,39.0,,,
92184,180.046875,2880,38.0,,,
92185,180.048828125,2880,38.0,,,
92186,180.05078125,2880,39.0,,,
92187,180.052734375,2880,39.0,,,
92188,180.0546875,2880,39.0,,,
92189,180.056640625,2880,38.0,,,
92190,180.05859375,2880,39.0,,,
92191,180.060546875,2880,38.0,,,
92192,180.0625,2881,38.0,,,
92193,180.064453125,2881,38.0,,,
92194,180.06640625,2881,38.0,,,
92195,180.068359375,2881,38.0,,,
92196,180.0703125,2881,38.0,,,
92197,180.072265625,2881,38.0,,,
92198,180.07421875,2881,38.0,,,
92199,180.076171875,2881,38.0,,,
92200,180.078125,2881,38.0,,,
92201,180.080078125,2881,38.0,,,
92202,180.08203125,2881,38.0,,,
92203,180.083984375,2881,38.0,,,
92204,180.0859375,2881,38.0,,,
92205,180.087890625,2881,38.0,,,
92206,180.08984375,2881,38.0,,,
92207,180.091796875,2881,39.0,,,
92208,180.09375,2881,38.0,,,
92209,180.095703125,2881,38.0,,,
92210,180.09765625,2881,38.0,,,
92211,180.099609375,2881,38.0,,,
92212,180.1015625,2881,38.0,,,
92213,180.103515625,2881,39.0,,,
92214,180.10546875,2881,38.0,,,
92215,180.107421875,2881,38.0,,,
92216,180.109375,2881,38.0,,,
92217,180.111328125,2881,38.0,,,
92218,180.11328125,2881,38.0,,,
92219,180.115234375,2881,38.0,,,
92220,180.1171875,2881,38.0,,,
92221,180.119140625,2881,39.0,,,
92222,180.12109375,2881,38.0,,,
92223,180.123046875,2881,39.0,,,
92224,180.125,2882,38.0,,,
92225,180.126953125,2882,38.0,,,
92226,180.12890625,2882,38.0,,,
92227,180.130859375,2882,39.0,,,
92228,180.1328125,2882,39.0,,,
92229,180.134765625,2882,39.0,,,
92230,180.13671875,2882,38.0,,,
92231,180.138671875,2882,39.0,,,
92232,180.140625,2882,38.0,,,
92233,180.142578125,2882,38.0,,,
92234,180.14453125,2882,38.0,,,
92235,180.146484375,2882,39.0,,,
92236,180.1484375,2882,38.0,,,
92237,180.150390625,2882,39.0,,,
92238,180.15234375,2882,38.0,,,
92239,180.154296875,2882,39.0,,,
92240,180.15625,2882,39.0,,,
92241,180.158203125,2882,38.0,,,
92242,180.16015625,2882,38.0,,,
92243,180.162109375,2882,39.0,,,
92244,180.1640625,2882,39.0,,,
92245,180.166015625,2882,39.0,,,
92246,180.16796875,2882,39.0,,,
92247,180.169921875,2882,39.0,,,
92248,180.171875,2882,39.0,,,
92249,180.173828125,2882,38.0,,,
92250,180.17578125,2882,39.0,,,
92251,180.177734375,2882,39.0,,,
92252,180.1796875,2882,38.0,,,
92253,180.181640625,2882,38.0,,,
92254,180.18359375,2882,39.0,,,
92255,180.185546875,2882,39.0,,,
92256,180.1875,2883,39.0,,,
92257,180.189453125,2883,39.0,,,
92258,180.19140625,2883,39.0,,,
92259,180.193359375,2883,39.0,,,
92260,180.1953125,2883,39.0,,,
92261,180.197265625,2883,39.0,,,
92262,180.19921875,2883,39.0,,,
92263,180.201171875,2883,39.0,,,
92264,180.203125,2883,39.0,,,
92265,180.205078125,2883,39.0,,,
92266,180.20703125,2883,39.0,,,
92267,180.208984375,2883,39.0,,,
92268,180.2109375,2883,39.0,,,
92269,180.212890625,2883,39.0,,,
92270,180.21484375,2883,39.0,,,
92271,180.216796875,2883,39.0,,,
92272,180.21875,2883,39.0,,,
92273,180.220703125,2883,39.0,,,
92274,180.22265625,2883,39.0,,,
92275,180.224609375,2883,39.0,,,
92276,180.2265625,2883,39.0,,,
92277,180.228515625,2883,39.0,,,
92278,180.23046875,2883,39.0,,,
92279,180.232421875,2883,39.0,,,
92280,180.234375,2883,39.0,,,
92281,180.236328125,2883,38.0,,,
92282,180.23828125,2883,39.0,,,
92283,180.240234375,2883,39.0,,,
92284,180.2421875,2883,39.0,,,
92285,180.244140625,2883,39.0,,,
92286,180.24609375,2883,18.0,,,
92287,180.248046875,2883,18.0,,,
92288,180.25,2884,18.0,,,
92289,180.251953125,2884,18.0,,,
92290,180.25390625,2884,18.0,,,
92291,180.255859375,2884,18.0,,,
92292,180.2578125,2884,18.0,,,
92293,180.259765625,2884,18.0,,,
92294,180.26171875,2884,18.0,,,
92295,180.263671875,2884,18.0,33553.0,180.263671875,0.001953125
92296,180.265625,2884,18.0,33554.0,180.265625,0.0
92297,180.267578125,2884,18.0,,,
92298,180.26953125,2884,18.0,,,
92299,180.271484375,2884,18.0,,,
92300,180.2734375,2884,18.0,,,
92301,180.275390625,2884,18.0,,,
92302,180.27734375,2884,18.0,,,
92303,180.279296875,2884,18.0,,,
92304,180.28125,2884,18.0,,,
92305,180.283203125,2884,18.0,,,
92306,180.28515625,2884,18.0,,,
92307,180.287109375,2884,18.0,,,
92308,180.2890625,2884,18.0,,,
92309,180.291015625,2884,18.0,,,
92310,180.29296875,2884,18.0,,,
92311,180.294921875,2884,18.0,,,
92312,180.296875,2884,18.0,,,
92313,180.298828125,2884,-5.0,,,
92314,180.30078125,2884,233.0,,,
92315,180.302734375,2884,460.0,,,
92316,180.3046875,2884,473.0,,,
92317,180.306640625,2884,310.0,,,
92318,180.30859375,2884,65.0,,,
92319,180.310546875,2884,-132.0,,,
92320,180.3125,2885,-146.0,,,
92321,180.314453125,2885,-27.0,,,
92322,180.31640625,2885,40.0,,,
92323,180.318359375,2885,48.0,,,
92324,180.3203125,2885,11.0,,,
92325,180.322265625,2885,-45.0,,,
92326,180.32421875,2885,-114.0,,,
92327,180.326171875,2885,-217.0,,,
92328,180.328125,2885,-321.0,,,
92329,180.330078125,2885,-364.0,,,
92330,180.33203125,2885,-309.0,,,
92331,180.333984375,2885,-182.0,,,
92332,180.3359375,2885,-42.0,,,
92333,180.337890625,2885,36.0,,,
92334,180.33984375,2885,68.0,,,
92335,180.341796875,2885,89.0,,,
92336,180.34375,2885,115.0,,,
92337,180.345703125,2885,148.0,,,
92338,180.34765625,2885,219.0,,,
92339,180.349609375,2885,340.0,,,
92340,180.3515625,2885,438.0,,,
92341,180.353515625,2885,506.0,,,
92342,180.35546875,2885,580.0,,,
92343,180.357421875,2885,589.0,,,
92344,180.359375,2885,572.0,,,
92345,180.361328125,2885,602.0,,,
92346,180.36328125,2885,608.0,,,
92347,180.365234375,2885,593.0,,,
92348,180.3671875,2885,548.0,,,
92349,180.369140625,2885,498.0,,,
92350,180.37109375,2885,562.0,,,
92351,180.373046875,2885,658.0,,,
92352,180.375,2886,692.0,,,
92353,180.376953125,2886,678.0,,,
92354,180.37890625,2886,612.0,,,
92355,180.380859375,2886,579.0,,,
92356,180.3828125,2886,614.0,,,
92357,180.384765625,2886,684.0,,,
92358,180.38671875,2886,708.0,,,
92359,180.388671875,2886,647.0,,,
92360,180.390625,2886,593.0,,,
92361,180.392578125,2886,565.0,,,
92362,180.39453125,2886,563.0,,,
92363,180.396484375,2886,611.0,,,
92364,180.3984375,2886,663.0,,,
92365,180.400390625,2886,666.0,,,
92366,180.40234375,2886,662.0,,,
92367,180.404296875,2886,713.0,,,
92368,180.40625,2886,747.0,,,
92369,180.408203125,2886,701.0,,,
92370,180.41015625,2886,633.0,,,
92371,180.412109375,2886,640.0,,,
92372,180.4140625,2886,697.0,,,
92373,180.416015625,2886,760.0,,,
92374,180.41796875,2886,777.0,,,
92375,180.419921875,2886,744.0,,,
92376,180.421875,2886,746.0,,,
92377,180.423828125,2886,813.0,,,
92378,180.42578125,2886,906.0,,,
92379,180.427734375,2886,993.0,,,
92380,180.4296875,2886,1027.0,,,
92381,180.431640625,2886,1018.0,,,
92382,180.43359375,2886,998.0,,,
92383,180.435546875,2886,982.0,,,
92384,180.4375,2887,965.0,,,
92385,180.439453125,2887,960.0,,,
92386,180.44140625,2887,956.0,,,
92387,180.443359375,2887,965.0,,,
92388,180.4453125,2887,968.0,,,
92389,180.447265625,2887,971.0,,,
92390,180.44921875,2887,971.0,,,
92391,180.451171875,2887,977.0,,,
92392,180.453125,2887,977.0,,,
92393,180.455078125,2887,981.0,,,
92394,180.45703125,2887,981.0,,,
92395,180.458984375,2887,944.0,,,
92396,180.4609375,2887,949.0,,,
92397,180.462890625,2887,961.0,,,
92398,180.46484375,2887,903.0,,,
92399,180.466796875,2887,833.0,,,
92400,180.46875,2887,809.0,,,
92401,180.470703125,2887,827.0,,,
92402,180.47265625,2887,821.0,,,
92403,180.474609375,2887,743.0,,,
92404,180.4765625,2887,682.0,,,
92405,180.478515625,2887,710.0,,,
92406,180.48046875,2887,736.0,,,
92407,180.482421875,2887,722.0,,,
92408,180.484375,2887,727.0,,,
92409,180.486328125,2887,727.0,,,
92410,180.48828125,2887,690.0,,,
92411,180.490234375,2887,659.0,,,
92412,180.4921875,2887,651.0,,,
92413,180.494140625,2887,647.0,,,
92414,180.49609375,2887,601.0,,,
92415,180.498046875,2887,549.0,,,
92416,180.5,2888,554.0,,,
92417,180.501953125,2888,563.0,,,
92418,180.50390625,2888,522.0,,,
92419,180.505859375,2888,449.0,,,
92420,180.5078125,2888,409.0,,,
92421,180.509765625,2888,422.0,,,
92422,180.51171875,2888,429.0,,,
92423,180.513671875,2888,418.0,,,
92424,180.515625,2888,387.0,,,
92425,180.517578125,2888,373.0,,,
92426,180.51953125,2888,370.0,,,
92427,180.521484375,2888,361.0,,,
92428,180.5234375,2888,357.0,,,
92429,180.525390625,2888,358.0,,,
92430,180.52734375,2888,348.0,,,
92431,180.529296875,2888,340.0,,,
92432,180.53125,2888,336.0,,,
92433,180.533203125,2888,308.0,,,
92434,180.53515625,2888,273.0,,,
92435,180.537109375,2888,257.0,,,
92436,180.5390625,2888,267.0,,,
92437,180.541015625,2888,258.0,,,
92438,180.54296875,2888,245.0,,,
92439,180.544921875,2888,248.0,,,
92440,180.546875,2888,249.0,,,
92441,180.548828125,2888,241.0,,,
92442,180.55078125,2888,243.0,,,
92443,180.552734375,2888,249.0,,,
92444,180.5546875,2888,248.0,,,
92445,180.556640625,2888,237.0,,,
92446,180.55859375,2888,243.0,,,
92447,180.560546875,2888,258.0,,,
92448,180.5625,2889,256.0,,,
92449,180.564453125,2889,230.0,,,
92450,180.56640625,2889,201.0,,,
92451,180.568359375,2889,204.0,,,
92452,180.5703125,2889,236.0,,,
92453,180.572265625,2889,253.0,,,
92454,180.57421875,2889,252.0,,,
92455,180.576171875,2889,246.0,,,
92456,180.578125,2889,230.0,,,
92457,180.580078125,2889,226.0,,,
92458,180.58203125,2889,242.0,,,
92459,180.583984375,2889,242.0,,,
92460,180.5859375,2889,220.0,,,
92461,180.587890625,2889,209.0,,,
92462,180.58984375,2889,214.0,,,
92463,180.591796875,2889,225.0,,,
92464,180.59375,2889,210.0,,,
92465,180.595703125,2889,181.0,,,
92466,180.59765625,2889,153.0,,,
92467,180.599609375,2889,118.0,,,
92468,180.6015625,2889,75.0,,,
92469,180.603515625,2889,23.0,,,
92470,180.60546875,2889,-67.0,,,
92471,180.607421875,2889,-167.0,,,
92472,180.609375,2889,-226.0,,,
92473,180.611328125,2889,-247.0,,,
92474,180.61328125,2889,-283.0,,,
92475,180.615234375,2889,-314.0,,,
92476,180.6171875,2889,-332.0,,,
92477,180.619140625,2889,-340.0,,,
92478,180.62109375,2889,-325.0,,,
92479,180.623046875,2889,-276.0,,,
92480,180.625,2890,-158.0,,,
92481,180.626953125,2890,-74.0,,,
92482,180.62890625,2890,-54.0,,,
92483,180.630859375,2890,-38.0,,,
92484,180.6328125,2890,-76.0,,,
92485,180.634765625,2890,-125.0,,,
92486,180.63671875,2890,-89.0,,,
92487,180.638671875,2890,-39.0,,,
92488,180.640625,2890,-9.0,,,
92489,180.642578125,2890,27.0,,,
92490,180.64453125,2890,70.0,,,
92491,180.646484375,2890,103.0,,,
92492,180.6484375,2890,53.0,,,
92493,180.650390625,2890,5.0,,,
92494,180.65234375,2890,67.0,,,
92495,180.654296875,2890,140.0,,,
92496,180.65625,2890,149.0,,,
92497,180.658203125,2890,115.0,,,
92498,180.66015625,2890,87.0,,,
92499,180.662109375,2890,83.0,,,
92500,180.6640625,2890,82.0,,,
92501,180.666015625,2890,89.0,,,
92502,180.66796875,2890,104.0,,,
92503,180.669921875,2890,104.0,,,
92504,180.671875,2890,92.0,,,
92505,180.673828125,2890,74.0,,,
92506,180.67578125,2890,60.0,,,
92507,180.677734375,2890,65.0,,,
92508,180.6796875,2890,48.0,,,
92509,180.681640625,2890,40.0,,,
92510,180.68359375,2890,96.0,,,
92511,180.685546875,2890,167.0,,,
92512,180.6875,2891,192.0,,,
92513,180.689453125,2891,157.0,,,
92514,180.69140625,2891,136.0,,,
92515,180.693359375,2891,155.0,,,
92516,180.6953125,2891,182.0,,,
92517,180.697265625,2891,183.0,,,
92518,180.69921875,2891,176.0,,,
92519,180.701171875,2891,172.0,,,
92520,180.703125,2891,169.0,,,
92521,180.705078125,2891,176.0,,,
92522,180.70703125,2891,188.0,,,
92523,180.708984375,2891,204.0,,,
92524,180.7109375,2891,221.0,,,
92525,180.712890625,2891,220.0,,,
92526,180.71484375,2891,201.0,,,
92527,180.716796875,2891,199.0,,,
92528,180.71875,2891,202.0,,,
92529,180.720703125,2891,197.0,,,
92530,180.72265625,2891,195.0,,,
92531,180.724609375,2891,178.0,,,
92532,180.7265625,2891,155.0,,,
92533,180.728515625,2891,153.0,,,
92534,180.73046875,2891,163.0,,,
92535,180.732421875,2891,168.0,,,
92536,180.734375,2891,152.0,,,
92537,180.736328125,2891,132.0,,,
92538,180.73828125,2891,122.0,,,
92539,180.740234375,2891,130.0,,,
92540,180.7421875,2891,149.0,,,
92541,180.744140625,2891,154.0,,,
92542,180.74609375,2891,144.0,,,
92543,180.748046875,2891,134.0,,,
92544,180.75,2892,125.0,,,
92545,180.751953125,2892,136.0,,,
92546,180.75390625,2892,156.0,,,
92547,180.755859375,2892,166.0,,,
92548,180.7578125,2892,160.0,,,
92549,180.759765625,2892,147.0,,,
92550,180.76171875,2892,136.0,,,
92551,180.763671875,2892,139.0,,,
92552,180.765625,2892,147.0,,,
92553,180.767578125,2892,141.0,,,
92554,180.76953125,2892,148.0,,,
92555,180.771484375,2892,161.0,,,
92556,180.7734375,2892,162.0,,,
92557,180.775390625,2892,154.0,,,
92558,180.77734375,2892,146.0,,,
92559,180.779296875,2892,153.0,,,
92560,180.78125,2892,173.0,,,
92561,180.783203125,2892,173.0,,,
92562,180.78515625,2892,161.0,,,
92563,180.787109375,2892,144.0,,,
92564,180.7890625,2892,132.0,,,
92565,180.791015625,2892,134.0,,,
92566,180.79296875,2892,128.0,,,
92567,180.794921875,2892,113.0,,,
92568,180.796875,2892,119.0,,,
92569,180.798828125,2892,141.0,,,
92570,180.80078125,2892,166.0,,,
92571,180.802734375,2892,170.0,,,
92572,180.8046875,2892,138.0,,,
92573,180.806640625,2892,128.0,,,
92574,180.80859375,2892,140.0,,,
92575,180.810546875,2892,129.0,,,
92576,180.8125,2893,105.0,,,
92577,180.814453125,2893,86.0,,,
92578,180.81640625,2893,75.0,,,
92579,180.818359375,2893,71.0,,,
92580,180.8203125,2893,74.0,,,
92581,180.822265625,2893,81.0,,,
92582,180.82421875,2893,84.0,,,
92583,180.826171875,2893,93.0,,,
92584,180.828125,2893,101.0,,,
92585,180.830078125,2893,87.0,,,
92586,180.83203125,2893,68.0,,,
92587,180.833984375,2893,58.0,,,
92588,180.8359375,2893,66.0,,,
92589,180.837890625,2893,73.0,,,
92590,180.83984375,2893,70.0,,,
92591,180.841796875,2893,68.0,,,
92592,180.84375,2893,74.0,,,
92593,180.845703125,2893,74.0,,,
92594,180.84765625,2893,72.0,,,
92595,180.849609375,2893,75.0,,,
92596,180.8515625,2893,82.0,,,
92597,180.853515625,2893,82.0,,,
92598,180.85546875,2893,80.0,,,
92599,180.857421875,2893,83.0,,,
92600,180.859375,2893,85.0,,,
92601,180.861328125,2893,87.0,,,
92602,180.86328125,2893,90.0,,,
92603,180.865234375,2893,92.0,,,
92604,180.8671875,2893,90.0,,,
92605,180.869140625,2893,80.0,,,
92606,180.87109375,2893,57.0,,,
92607,180.873046875,2893,38.0,,,
92608,180.875,2894,32.0,,,
92609,180.876953125,2894,37.0,,,
92610,180.87890625,2894,6.0,,,
92611,180.880859375,2894,-29.0,,,
92612,180.8828125,2894,-45.0,,,
92613,180.884765625,2894,-37.0,,,
92614,180.88671875,2894,-28.0,,,
92615,180.888671875,2894,-36.0,,,
92616,180.890625,2894,-56.0,,,
92617,180.892578125,2894,-72.0,,,
92618,180.89453125,2894,-59.0,,,
92619,180.896484375,2894,-39.0,,,
92620,180.8984375,2894,-45.0,,,
92621,180.900390625,2894,-24.0,,,
92622,180.90234375,2894,4.0,,,
92623,180.904296875,2894,1.0,,,
92624,180.90625,2894,13.0,,,
92625,180.908203125,2894,33.0,,,
92626,180.91015625,2894,32.0,,,
92627,180.912109375,2894,13.0,,,
92628,180.9140625,2894,26.0,,,
92629,180.916015625,2894,59.0,,,
92630,180.91796875,2894,68.0,,,
92631,180.919921875,2894,55.0,,,
92632,180.921875,2894,59.0,,,
92633,180.923828125,2894,84.0,,,
92634,180.92578125,2894,81.0,,,
92635,180.927734375,2894,88.0,,,
92636,180.9296875,2894,114.0,,,
92637,180.931640625,2894,128.0,,,
92638,180.93359375,2894,128.0,,,
92639,180.935546875,2894,122.0,,,
92640,180.9375,2895,135.0,,,
92641,180.939453125,2895,134.0,,,
92642,180.94140625,2895,145.0,,,
92643,180.943359375,2895,154.0,,,
92644,180.9453125,2895,151.0,,,
92645,180.947265625,2895,140.0,,,
92646,180.94921875,2895,132.0,,,
92647,180.951171875,2895,122.0,,,
92648,180.953125,2895,90.0,33552.0,180.953125,0.0
92649,180.955078125,2895,81.0,,,
92650,180.95703125,2895,72.0,,,
92651,180.958984375,2895,68.0,,,
92652,180.9609375,2895,64.0,,,
92653,180.962890625,2895,53.0,,,
92654,180.96484375,2895,27.0,,,
92655,180.966796875,2895,-2.0,,,
92656,180.96875,2895,7.0,,,
92657,180.970703125,2895,26.0,,,
92658,180.97265625,2895,11.0,,,
92659,180.974609375,2895,2.0,,,
92660,180.9765625,2895,8.0,,,
92661,180.978515625,2895,-8.0,,,
92662,180.98046875,2895,-36.0,,,
92663,180.982421875,2895,-25.0,,,
92664,180.984375,2895,-10.0,,,
92665,180.986328125,2895,-26.0,,,
92666,180.98828125,2895,-58.0,,,
92667,180.990234375,2895,-73.0,,,
92668,180.9921875,2895,-76.0,,,
92669,180.994140625,2895,-84.0,,,
92670,180.99609375,2895,-81.0,,,
92671,180.998046875,2895,-100.0,,,
92672,181.0,2896,-169.0,,,
92673,181.001953125,2896,-235.0,,,
92674,181.00390625,2896,-228.0,,,
92675,181.005859375,2896,-202.0,,,
92676,181.0078125,2896,-229.0,,,
92677,181.009765625,2896,-315.0,,,
92678,181.01171875,2896,-411.0,,,
92679,181.013671875,2896,-403.0,,,
92680,181.015625,2896,-347.0,,,
92681,181.017578125,2896,-365.0,,,
92682,181.01953125,2896,-440.0,,,
92683,181.021484375,2896,-487.0,,,
92684,181.0234375,2896,-557.0,,,
92685,181.025390625,2896,-664.0,,,
92686,181.02734375,2896,-681.0,,,
92687,181.029296875,2896,-657.0,,,
92688,181.03125,2896,-665.0,,,
92689,181.033203125,2896,-678.0,,,
92690,181.03515625,2896,-741.0,,,
92691,181.037109375,2896,-805.0,,,
92692,181.0390625,2896,-794.0,,,
92693,181.041015625,2896,-818.0,,,
92694,181.04296875,2896,-819.0,,,
92695,181.044921875,2896,-823.0,,,
92696,181.046875,2896,-889.0,,,
92697,181.048828125,2896,-957.0,,,
92698,181.05078125,2896,-914.0,,,
92699,181.052734375,2896,-814.0,,,
92700,181.0546875,2896,-792.0,,,
92701,181.056640625,2896,-813.0,,,
92702,181.05859375,2896,-823.0,,,
92703,181.060546875,2896,-843.0,,,
92704,181.0625,2897,-827.0,,,
92705,181.064453125,2897,-811.0,,,
92706,181.06640625,2897,-845.0,,,
92707,181.068359375,2897,-842.0,,,
92708,181.0703125,2897,-805.0,,,
92709,181.072265625,2897,-824.0,,,
92710,181.07421875,2897,-812.0,,,
92711,181.076171875,2897,-745.0,,,
92712,181.078125,2897,-693.0,,,
92713,181.080078125,2897,-694.0,,,
92714,181.08203125,2897,-705.0,,,
92715,181.083984375,2897,-721.0,,,
92716,181.0859375,2897,-652.0,,,
92717,181.087890625,2897,-580.0,,,
92718,181.08984375,2897,-658.0,,,
92719,181.091796875,2897,-769.0,,,
92720,181.09375,2897,-749.0,,,
92721,181.095703125,2897,-669.0,,,
92722,181.09765625,2897,-638.0,,,
92723,181.099609375,2897,-680.0,,,
92724,181.1015625,2897,-789.0,,,
92725,181.103515625,2897,-822.0,,,
92726,181.10546875,2897,-794.0,,,
92727,181.107421875,2897,-773.0,,,
92728,181.109375,2897,-746.0,,,
92729,181.111328125,2897,-772.0,,,
92730,181.11328125,2897,-798.0,,,
92731,181.115234375,2897,-824.0,,,
92732,181.1171875,2897,-845.0,,,
92733,181.119140625,2897,-785.0,,,
92734,181.12109375,2897,-659.0,,,
92735,181.123046875,2897,-612.0,,,
92736,181.125,2898,-685.0,,,
92737,181.126953125,2898,-731.0,,,
92738,181.12890625,2898,-691.0,,,
92739,181.130859375,2898,-599.0,,,
92740,181.1328125,2898,-599.0,,,
92741,181.134765625,2898,-540.0,,,
92742,181.13671875,2898,-478.0,,,
92743,181.138671875,2898,-444.0,,,
92744,181.140625,2898,-385.0,,,
92745,181.142578125,2898,-357.0,,,
92746,181.14453125,2898,-302.0,,,
92747,181.146484375,2898,-211.0,,,
92748,181.1484375,2898,-113.0,,,
92749,181.150390625,2898,-78.0,,,
92750,181.15234375,2898,-35.0,,,
92751,181.154296875,2898,-12.0,,,
92752,181.15625,2898,3.0,,,
92753,181.158203125,2898,35.0,,,
92754,181.16015625,2898,76.0,,,
92755,181.162109375,2898,116.0,,,
92756,181.1640625,2898,104.0,,,
92757,181.166015625,2898,99.0,,,
92758,181.16796875,2898,155.0,,,
92759,181.169921875,2898,217.0,,,
92760,181.171875,2898,140.0,,,
92761,181.173828125,2898,52.0,,,
92762,181.17578125,2898,68.0,,,
92763,181.177734375,2898,162.0,,,
92764,181.1796875,2898,281.0,,,
92765,181.181640625,2898,340.0,,,
92766,181.18359375,2898,300.0,,,
92767,181.185546875,2898,279.0,,,
92768,181.1875,2899,300.0,,,
92769,181.189453125,2899,342.0,,,
92770,181.19140625,2899,368.0,,,
92771,181.193359375,2899,410.0,,,
92772,181.1953125,2899,452.0,,,
92773,181.197265625,2899,439.0,,,
92774,181.19921875,2899,433.0,,,
92775,181.201171875,2899,493.0,33552.0,181.201171875,0.0
92776,181.203125,2899,556.0,,,
92777,181.205078125,2899,596.0,,,
92778,181.20703125,2899,567.0,,,
92779,181.208984375,2899,518.0,,,
92780,181.2109375,2899,489.0,,,
92781,181.212890625,2899,548.0,,,
92782,181.21484375,2899,645.0,,,
92783,181.216796875,2899,679.0,,,
92784,181.21875,2899,642.0,,,
92785,181.220703125,2899,634.0,,,
92786,181.22265625,2899,644.0,,,
92787,181.224609375,2899,662.0,,,
92788,181.2265625,2899,673.0,,,
92789,181.228515625,2899,679.0,,,
92790,181.23046875,2899,688.0,,,
92791,181.232421875,2899,645.0,,,
92792,181.234375,2899,617.0,,,
92793,181.236328125,2899,601.0,,,
92794,181.23828125,2899,550.0,,,
92795,181.240234375,2899,538.0,,,
92796,181.2421875,2899,518.0,,,
92797,181.244140625,2899,498.0,,,
92798,181.24609375,2899,491.0,,,
92799,181.248046875,2899,456.0,,,
92800,181.25,2900,416.0,,,
92801,181.251953125,2900,419.0,,,
92802,181.25390625,2900,454.0,,,
92803,181.255859375,2900,504.0,,,
92804,181.2578125,2900,534.0,,,
92805,181.259765625,2900,520.0,,,
92806,181.26171875,2900,540.0,,,
92807,181.263671875,2900,565.0,,,
92808,181.265625,2900,599.0,,,
92809,181.267578125,2900,609.0,,,
92810,181.26953125,2900,682.0,,,
92811,181.271484375,2900,761.0,,,
92812,181.2734375,2900,780.0,,,
92813,181.275390625,2900,731.0,,,
92814,181.27734375,2900,712.0,,,
92815,181.279296875,2900,765.0,,,
92816,181.28125,2900,777.0,,,
92817,181.283203125,2900,713.0,,,
92818,181.28515625,2900,674.0,,,
92819,181.287109375,2900,682.0,,,
92820,181.2890625,2900,683.0,,,
92821,181.291015625,2900,680.0,,,
92822,181.29296875,2900,680.0,,,
92823,181.294921875,2900,661.0,,,
92824,181.296875,2900,652.0,,,
92825,181.298828125,2900,663.0,,,
92826,181.30078125,2900,657.0,,,
92827,181.302734375,2900,621.0,,,
92828,181.3046875,2900,598.0,,,
92829,181.306640625,2900,582.0,,,
92830,181.30859375,2900,557.0,,,
92831,181.310546875,2900,530.0,,,
92832,181.3125,2901,514.0,,,
92833,181.314453125,2901,471.0,,,
92834,181.31640625,2901,473.0,,,
92835,181.318359375,2901,492.0,,,
92836,181.3203125,2901,472.0,,,
92837,181.322265625,2901,465.0,,,
92838,181.32421875,2901,465.0,,,
92839,181.326171875,2901,450.0,,,
92840,181.328125,2901,438.0,,,
92841,181.330078125,2901,440.0,,,
92842,181.33203125,2901,420.0,,,
92843,181.333984375,2901,393.0,,,
92844,181.3359375,2901,386.0,,,
92845,181.337890625,2901,378.0,,,
92846,181.33984375,2901,375.0,,,
92847,181.341796875,2901,377.0,,,
92848,181.34375,2901,388.0,,,
92849,181.345703125,2901,395.0,,,
92850,181.34765625,2901,390.0,,,
92851,181.349609375,2901,381.0,,,
92852,181.3515625,2901,374.0,,,
92853,181.353515625,2901,369.0,,,
92854,181.35546875,2901,360.0,,,
92855,181.357421875,2901,332.0,,,
92856,181.359375,2901,307.0,,,
92857,181.361328125,2901,311.0,,,
92858,181.36328125,2901,322.0,,,
92859,181.365234375,2901,323.0,,,
92860,181.3671875,2901,307.0,,,
92861,181.369140625,2901,289.0,,,
92862,181.37109375,2901,280.0,,,
92863,181.373046875,2901,309.0,,,
92864,181.375,2902,321.0,,,
92865,181.376953125,2902,306.0,,,
92866,181.37890625,2902,279.0,,,
92867,181.380859375,2902,263.0,,,
92868,181.3828125,2902,263.0,,,
92869,181.384765625,2902,273.0,,,
92870,181.38671875,2902,275.0,,,
92871,181.388671875,2902,259.0,,,
92872,181.390625,2902,242.0,,,
92873,181.392578125,2902,235.0,,,
92874,181.39453125,2902,244.0,,,
92875,181.396484375,2902,256.0,,,
92876,181.3984375,2902,249.0,,,
92877,181.400390625,2902,237.0,,,
92878,181.40234375,2902,241.0,,,
92879,181.404296875,2902,237.0,,,
92880,181.40625,2902,233.0,,,
92881,181.408203125,2902,235.0,,,
92882,181.41015625,2902,234.0,,,
92883,181.412109375,2902,217.0,,,
92884,181.4140625,2902,193.0,,,
92885,181.416015625,2902,186.0,,,
92886,181.41796875,2902,193.0,,,
92887,181.419921875,2902,204.0,,,
92888,181.421875,2902,218.0,,,
92889,181.423828125,2902,212.0,,,
92890,181.42578125,2902,196.0,,,
92891,181.427734375,2902,189.0,,,
92892,181.4296875,2902,196.0,,,
92893,181.431640625,2902,189.0,,,
92894,181.43359375,2902,183.0,,,
92895,181.435546875,2902,179.0,,,
92896,181.4375,2903,180.0,,,
92897,181.439453125,2903,172.0,,,
92898,181.44140625,2903,168.0,,,
92899,181.443359375,2903,168.0,,,
92900,181.4453125,2903,167.0,,,
92901,181.447265625,2903,173.0,,,
92902,181.44921875,2903,177.0,,,
92903,181.451171875,2903,171.0,,,
92904,181.453125,2903,167.0,,,
92905,181.455078125,2903,164.0,,,
92906,181.45703125,2903,149.0,,,
92907,181.458984375,2903,135.0,,,
92908,181.4609375,2903,135.0,,,
92909,181.462890625,2903,138.0,,,
92910,181.46484375,2903,134.0,,,
92911,181.466796875,2903,133.0,,,
92912,181.46875,2903,133.0,,,
92913,181.470703125,2903,129.0,,,
92914,181.47265625,2903,122.0,,,
92915,181.474609375,2903,123.0,,,
92916,181.4765625,2903,122.0,,,
92917,181.478515625,2903,117.0,,,
92918,181.48046875,2903,106.0,,,
92919,181.482421875,2903,101.0,,,
92920,181.484375,2903,100.0,,,
92921,181.486328125,2903,92.0,,,
92922,181.48828125,2903,82.0,,,
92923,181.490234375,2903,76.0,,,
92924,181.4921875,2903,75.0,,,
92925,181.494140625,2903,66.0,,,
92926,181.49609375,2903,56.0,,,
92927,181.498046875,2903,55.0,,,
92928,181.5,2904,55.0,,,
92929,181.501953125,2904,52.0,,,
92930,181.50390625,2904,37.0,,,
92931,181.505859375,2904,24.0,,,
92932,181.5078125,2904,29.0,,,
92933,181.509765625,2904,48.0,,,
92934,181.51171875,2904,57.0,,,
92935,181.513671875,2904,59.0,,,
92936,181.515625,2904,73.0,,,
92937,181.517578125,2904,84.0,,,
92938,181.51953125,2904,87.0,,,
92939,181.521484375,2904,88.0,,,
92940,181.5234375,2904,91.0,,,
92941,181.525390625,2904,103.0,,,
92942,181.52734375,2904,114.0,,,
92943,181.529296875,2904,108.0,,,
92944,181.53125,2904,96.0,,,
92945,181.533203125,2904,97.0,,,
92946,181.53515625,2904,106.0,,,
92947,181.537109375,2904,112.0,,,
92948,181.5390625,2904,98.0,,,
92949,181.541015625,2904,80.0,,,
92950,181.54296875,2904,73.0,,,
92951,181.544921875,2904,76.0,,,
92952,181.546875,2904,76.0,,,
92953,181.548828125,2904,73.0,,,
92954,181.55078125,2904,75.0,,,
92955,181.552734375,2904,80.0,,,
92956,181.5546875,2904,72.0,,,
92957,181.556640625,2904,76.0,,,
92958,181.55859375,2904,87.0,,,
92959,181.560546875,2904,97.0,,,
92960,181.5625,2905,100.0,,,
92961,181.564453125,2905,98.0,,,
92962,181.56640625,2905,90.0,,,
92963,181.568359375,2905,85.0,,,
92964,181.5703125,2905,86.0,,,
92965,181.572265625,2905,90.0,,,
92966,181.57421875,2905,90.0,,,
92967,181.576171875,2905,88.0,,,
92968,181.578125,2905,84.0,,,
92969,181.580078125,2905,81.0,,,
92970,181.58203125,2905,82.0,,,
92971,181.583984375,2905,82.0,,,
92972,181.5859375,2905,83.0,,,
92973,181.587890625,2905,82.0,,,
92974,181.58984375,2905,77.0,,,
92975,181.591796875,2905,75.0,,,
92976,181.59375,2905,75.0,,,
92977,181.595703125,2905,74.0,,,
92978,181.59765625,2905,73.0,,,
92979,181.599609375,2905,72.0,,,
92980,181.6015625,2905,73.0,,,
92981,181.603515625,2905,72.0,,,
92982,181.60546875,2905,72.0,,,
92983,181.607421875,2905,71.0,,,
92984,181.609375,2905,69.0,,,
92985,181.611328125,2905,67.0,,,
92986,181.61328125,2905,67.0,,,
92987,181.615234375,2905,71.0,,,
92988,181.6171875,2905,72.0,,,
92989,181.619140625,2905,69.0,,,
92990,181.62109375,2905,66.0,,,
92991,181.623046875,2905,65.0,,,
92992,181.625,2906,67.0,,,
92993,181.626953125,2906,66.0,,,
92994,181.62890625,2906,65.0,,,
92995,181.630859375,2906,64.0,,,
92996,181.6328125,2906,64.0,,,
92997,181.634765625,2906,61.0,,,
92998,181.63671875,2906,60.0,,,
92999,181.638671875,2906,60.0,,,
93000,181.640625,2906,61.0,,,
93001,181.642578125,2906,60.0,,,
93002,181.64453125,2906,58.0,,,
93003,181.646484375,2906,56.0,,,
93004,181.6484375,2906,56.0,,,
93005,181.650390625,2906,56.0,,,
93006,181.65234375,2906,56.0,,,
93007,181.654296875,2906,57.0,,,
93008,181.65625,2906,58.0,,,
93009,181.658203125,2906,58.0,,,
93010,181.66015625,2906,56.0,,,
93011,181.662109375,2906,55.0,,,
93012,181.6640625,2906,55.0,,,
93013,181.666015625,2906,54.0,,,
93014,181.66796875,2906,53.0,,,
93015,181.669921875,2906,52.0,,,
93016,181.671875,2906,51.0,,,
93017,181.673828125,2906,52.0,,,
93018,181.67578125,2906,54.0,,,
93019,181.677734375,2906,56.0,,,
93020,181.6796875,2906,56.0,,,
93021,181.681640625,2906,55.0,,,
93022,181.68359375,2906,53.0,,,
93023,181.685546875,2906,53.0,,,
93024,181.6875,2907,53.0,,,
93025,181.689453125,2907,52.0,,,
93026,181.69140625,2907,51.0,,,
93027,181.693359375,2907,50.0,,,
93028,181.6953125,2907,49.0,,,
93029,181.697265625,2907,50.0,,,
93030,181.69921875,2907,50.0,,,
93031,181.701171875,2907,50.0,,,
93032,181.703125,2907,51.0,,,
93033,181.705078125,2907,50.0,,,
93034,181.70703125,2907,50.0,,,
93035,181.708984375,2907,49.0,,,
93036,181.7109375,2907,48.0,,,
93037,181.712890625,2907,48.0,,,
93038,181.71484375,2907,48.0,,,
93039,181.716796875,2907,48.0,,,
93040,181.71875,2907,44.0,,,
93041,181.720703125,2907,45.0,,,
93042,181.72265625,2907,45.0,,,
93043,181.724609375,2907,45.0,,,
93044,181.7265625,2907,44.0,,,
93045,181.728515625,2907,44.0,,,
93046,181.73046875,2907,44.0,,,
93047,181.732421875,2907,45.0,,,
93048,181.734375,2907,44.0,,,
93049,181.736328125,2907,43.0,,,
93050,181.73828125,2907,42.0,,,
93051,181.740234375,2907,42.0,,,
93052,181.7421875,2907,43.0,,,
93053,181.744140625,2907,43.0,,,
93054,181.74609375,2907,43.0,,,
93055,181.748046875,2907,42.0,,,
93056,181.75,2908,42.0,,,
93057,181.751953125,2908,43.0,,,
93058,181.75390625,2908,44.0,,,
93059,181.755859375,2908,44.0,,,
93060,181.7578125,2908,42.0,,,
93061,181.759765625,2908,42.0,,,
93062,181.76171875,2908,43.0,,,
93063,181.763671875,2908,44.0,,,
93064,181.765625,2908,44.0,,,
93065,181.767578125,2908,44.0,,,
93066,181.76953125,2908,43.0,,,
93067,181.771484375,2908,43.0,,,
93068,181.7734375,2908,43.0,,,
93069,181.775390625,2908,42.0,,,
93070,181.77734375,2908,43.0,,,
93071,181.779296875,2908,44.0,,,
93072,181.78125,2908,44.0,,,
93073,181.783203125,2908,44.0,,,
93074,181.78515625,2908,44.0,,,
93075,181.787109375,2908,44.0,,,
93076,181.7890625,2908,44.0,,,
93077,181.791015625,2908,44.0,,,
93078,181.79296875,2908,44.0,,,
93079,181.794921875,2908,44.0,,,
93080,181.796875,2908,44.0,,,
93081,181.798828125,2908,44.0,,,
93082,181.80078125,2908,43.0,,,
93083,181.802734375,2908,44.0,,,
93084,181.8046875,2908,44.0,,,
93085,181.806640625,2908,43.0,,,
93086,181.80859375,2908,43.0,,,
93087,181.810546875,2908,43.0,,,
93088,181.8125,2909,42.0,,,
93089,181.814453125,2909,42.0,,,
93090,181.81640625,2909,43.0,,,
93091,181.818359375,2909,43.0,,,
93092,181.8203125,2909,43.0,,,
93093,181.822265625,2909,42.0,,,
93094,181.82421875,2909,42.0,,,
93095,181.826171875,2909,42.0,,,
93096,181.828125,2909,43.0,,,
93097,181.830078125,2909,42.0,,,
93098,181.83203125,2909,42.0,,,
93099,181.833984375,2909,42.0,,,
93100,181.8359375,2909,42.0,,,
93101,181.837890625,2909,42.0,,,
93102,181.83984375,2909,42.0,,,
93103,181.841796875,2909,42.0,,,
93104,181.84375,2909,42.0,,,
93105,181.845703125,2909,42.0,,,
93106,181.84765625,2909,42.0,,,
93107,181.849609375,2909,41.0,,,
93108,181.8515625,2909,41.0,,,
93109,181.853515625,2909,41.0,,,
93110,181.85546875,2909,41.0,,,
93111,181.857421875,2909,41.0,,,
93112,181.859375,2909,40.0,,,
93113,181.861328125,2909,39.0,,,
93114,181.86328125,2909,37.0,,,
93115,181.865234375,2909,32.0,,,
93116,181.8671875,2909,22.0,,,
93117,181.869140625,2909,6.0,,,
93118,181.87109375,2909,-9.0,,,
93119,181.873046875,2909,-22.0,,,
93120,181.875,2910,-24.0,,,
93121,181.876953125,2910,-35.0,,,
93122,181.87890625,2910,-54.0,,,
93123,181.880859375,2910,-58.0,,,
93124,181.8828125,2910,-45.0,,,
93125,181.884765625,2910,-33.0,,,
93126,181.88671875,2910,-29.0,,,
93127,181.888671875,2910,-39.0,,,
93128,181.890625,2910,-51.0,,,
93129,181.892578125,2910,-59.0,,,
93130,181.89453125,2910,-55.0,,,
93131,181.896484375,2910,-27.0,,,
93132,181.8984375,2910,-3.0,,,
93133,181.900390625,2910,10.0,,,
93134,181.90234375,2910,18.0,,,
93135,181.904296875,2910,18.0,,,
93136,181.90625,2910,19.0,,,
93137,181.908203125,2910,21.0,,,
93138,181.91015625,2910,19.0,,,
93139,181.912109375,2910,19.0,,,
93140,181.9140625,2910,21.0,,,
93141,181.916015625,2910,25.0,,,
93142,181.91796875,2910,38.0,,,
93143,181.919921875,2910,48.0,,,
93144,181.921875,2910,48.0,,,
93145,181.923828125,2910,39.0,,,
93146,181.92578125,2910,35.0,,,
93147,181.927734375,2910,22.0,,,
93148,181.9296875,2910,1.0,,,
93149,181.931640625,2910,-13.0,,,
93150,181.93359375,2910,-23.0,,,
93151,181.935546875,2910,-21.0,,,
93152,181.9375,2911,-33.0,,,
93153,181.939453125,2911,-70.0,,,
93154,181.94140625,2911,-105.0,,,
93155,181.943359375,2911,-116.0,,,
93156,181.9453125,2911,-109.0,,,
93157,181.947265625,2911,-97.0,,,
93158,181.94921875,2911,-85.0,,,
93159,181.951171875,2911,-56.0,,,
93160,181.953125,2911,-33.0,,,
93161,181.955078125,2911,-11.0,,,
93162,181.95703125,2911,13.0,,,
93163,181.958984375,2911,36.0,,,
93164,181.9609375,2911,50.0,,,
93165,181.962890625,2911,64.0,,,
93166,181.96484375,2911,77.0,,,
93167,181.966796875,2911,81.0,,,
93168,181.96875,2911,80.0,,,
93169,181.970703125,2911,80.0,,,
93170,181.97265625,2911,80.0,,,
93171,181.974609375,2911,77.0,,,
93172,181.9765625,2911,77.0,,,
93173,181.978515625,2911,81.0,,,
93174,181.98046875,2911,84.0,,,
93175,181.982421875,2911,82.0,,,
93176,181.984375,2911,73.0,,,
93177,181.986328125,2911,66.0,,,
93178,181.98828125,2911,65.0,,,
93179,181.990234375,2911,70.0,,,
93180,181.9921875,2911,76.0,,,
93181,181.994140625,2911,82.0,,,
93182,181.99609375,2911,81.0,,,
93183,181.998046875,2911,80.0,,,
93184,182.0,2912,84.0,,,
93185,182.001953125,2912,90.0,,,
93186,182.00390625,2912,90.0,,,
93187,182.005859375,2912,88.0,,,
93188,182.0078125,2912,88.0,,,
93189,182.009765625,2912,90.0,,,
93190,182.01171875,2912,89.0,,,
93191,182.013671875,2912,86.0,,,
93192,182.015625,2912,82.0,,,
93193,182.017578125,2912,80.0,,,
93194,182.01953125,2912,80.0,,,
93195,182.021484375,2912,80.0,,,
93196,182.0234375,2912,82.0,,,
93197,182.025390625,2912,81.0,,,
93198,182.02734375,2912,77.0,,,
93199,182.029296875,2912,75.0,,,
93200,182.03125,2912,74.0,,,
93201,182.033203125,2912,74.0,,,
93202,182.03515625,2912,73.0,,,
93203,182.037109375,2912,68.0,,,
93204,182.0390625,2912,60.0,,,
93205,182.041015625,2912,65.0,,,
93206,182.04296875,2912,68.0,,,
93207,182.044921875,2912,65.0,,,
93208,182.046875,2912,59.0,,,
93209,182.048828125,2912,60.0,,,
93210,182.05078125,2912,65.0,,,
93211,182.052734375,2912,65.0,,,
93212,182.0546875,2912,58.0,,,
93213,182.056640625,2912,51.0,,,
93214,182.05859375,2912,49.0,,,
93215,182.060546875,2912,48.0,,,
93216,182.0625,2913,43.0,,,
93217,182.064453125,2913,41.0,,,
93218,182.06640625,2913,39.0,,,
93219,182.068359375,2913,38.0,,,
93220,182.0703125,2913,36.0,,,
93221,182.072265625,2913,27.0,,,
93222,182.07421875,2913,23.0,,,
93223,182.076171875,2913,22.0,,,
93224,182.078125,2913,20.0,,,
93225,182.080078125,2913,17.0,,,
93226,182.08203125,2913,9.0,,,
93227,182.083984375,2913,0.0,,,
93228,182.0859375,2913,5.0,,,
93229,182.087890625,2913,11.0,,,
93230,182.08984375,2913,6.0,,,
93231,182.091796875,2913,2.0,,,
93232,182.09375,2913,5.0,,,
93233,182.095703125,2913,16.0,,,
93234,182.09765625,2913,20.0,,,
93235,182.099609375,2913,20.0,,,
93236,182.1015625,2913,16.0,,,
93237,182.103515625,2913,11.0,,,
93238,182.10546875,2913,21.0,,,
93239,182.107421875,2913,35.0,,,
93240,182.109375,2913,34.0,,,
93241,182.111328125,2913,26.0,,,
93242,182.11328125,2913,26.0,,,
93243,182.115234375,2913,34.0,,,
93244,182.1171875,2913,39.0,,,
93245,182.119140625,2913,36.0,,,
93246,182.12109375,2913,36.0,,,
93247,182.123046875,2913,43.0,,,
93248,182.125,2914,44.0,,,
93249,182.126953125,2914,44.0,,,
93250,182.12890625,2914,42.0,,,
93251,182.130859375,2914,41.0,,,
93252,182.1328125,2914,48.0,,,
93253,182.134765625,2914,50.0,,,
93254,182.13671875,2914,42.0,,,
93255,182.138671875,2914,29.0,,,
93256,182.140625,2914,35.0,,,
93257,182.142578125,2914,44.0,,,
93258,182.14453125,2914,51.0,,,
93259,182.146484375,2914,50.0,,,
93260,182.1484375,2914,40.0,,,
93261,182.150390625,2914,37.0,,,
93262,182.15234375,2914,43.0,,,
93263,182.154296875,2914,50.0,,,
93264,182.15625,2914,53.0,,,
93265,182.158203125,2914,53.0,,,
93266,182.16015625,2914,54.0,,,
93267,182.162109375,2914,53.0,,,
93268,182.1640625,2914,48.0,,,
93269,182.166015625,2914,44.0,,,
93270,182.16796875,2914,49.0,,,
93271,182.169921875,2914,52.0,,,
93272,182.171875,2914,54.0,,,
93273,182.173828125,2914,48.0,,,
93274,182.17578125,2914,36.0,,,
93275,182.177734375,2914,34.0,,,
93276,182.1796875,2914,37.0,,,
93277,182.181640625,2914,37.0,,,
93278,182.18359375,2914,34.0,,,
93279,182.185546875,2914,32.0,,,
93280,182.1875,2915,27.0,,,
93281,182.189453125,2915,27.0,,,
93282,182.19140625,2915,34.0,,,
93283,182.193359375,2915,33.0,,,
93284,182.1953125,2915,22.0,,,
93285,182.197265625,2915,21.0,,,
93286,182.19921875,2915,25.0,,,
93287,182.201171875,2915,26.0,,,
93288,182.203125,2915,20.0,,,
93289,182.205078125,2915,19.0,,,
93290,182.20703125,2915,27.0,,,
93291,182.208984375,2915,37.0,,,
93292,182.2109375,2915,40.0,,,
93293,182.212890625,2915,41.0,,,
93294,182.21484375,2915,38.0,,,
93295,182.216796875,2915,39.0,,,
93296,182.21875,2915,50.0,,,
93297,182.220703125,2915,55.0,,,
93298,182.22265625,2915,53.0,,,
93299,182.224609375,2915,44.0,,,
93300,182.2265625,2915,41.0,,,
93301,182.228515625,2915,53.0,,,
93302,182.23046875,2915,66.0,,,
93303,182.232421875,2915,69.0,,,
93304,182.234375,2915,66.0,,,
93305,182.236328125,2915,66.0,,,
93306,182.23828125,2915,64.0,,,
93307,182.240234375,2915,57.0,,,
93308,182.2421875,2915,60.0,,,
93309,182.244140625,2915,68.0,,,
93310,182.24609375,2915,70.0,,,
93311,182.248046875,2915,74.0,,,
93312,182.25,2916,80.0,,,
93313,182.251953125,2916,74.0,,,
93314,182.25390625,2916,60.0,,,
93315,182.255859375,2916,54.0,,,
93316,182.2578125,2916,59.0,,,
93317,182.259765625,2916,66.0,,,
93318,182.26171875,2916,64.0,,,
93319,182.263671875,2916,53.0,,,
93320,182.265625,2916,45.0,,,
93321,182.267578125,2916,52.0,,,
93322,182.26953125,2916,60.0,,,
93323,182.271484375,2916,68.0,,,
93324,182.2734375,2916,70.0,,,
93325,182.275390625,2916,65.0,,,
93326,182.27734375,2916,56.0,,,
93327,182.279296875,2916,53.0,,,
93328,182.28125,2916,49.0,,,
93329,182.283203125,2916,44.0,,,
93330,182.28515625,2916,38.0,,,
93331,182.287109375,2916,33.0,,,
93332,182.2890625,2916,33.0,,,
93333,182.291015625,2916,38.0,,,
93334,182.29296875,2916,37.0,,,
93335,182.294921875,2916,24.0,,,
93336,182.296875,2916,17.0,,,
93337,182.298828125,2916,10.0,,,
93338,182.30078125,2916,8.0,,,
93339,182.302734375,2916,5.0,,,
93340,182.3046875,2916,0.0,,,
93341,182.306640625,2916,-9.0,,,
93342,182.30859375,2916,-21.0,,,
93343,182.310546875,2916,-29.0,,,
93344,182.3125,2917,-39.0,,,
93345,182.314453125,2917,-51.0,,,
93346,182.31640625,2917,-72.0,,,
93347,182.318359375,2917,-98.0,,,
93348,182.3203125,2917,-125.0,,,
93349,182.322265625,2917,-182.0,,,
93350,182.32421875,2917,-261.0,,,
93351,182.326171875,2917,-313.0,,,
93352,182.328125,2917,-330.0,,,
93353,182.330078125,2917,-369.0,,,
93354,182.33203125,2917,-461.0,,,
93355,182.333984375,2917,-618.0,,,
93356,182.3359375,2917,-829.0,,,
93357,182.337890625,2917,-1050.0,,,
93358,182.33984375,2917,-1235.0,,,
93359,182.341796875,2917,-1326.0,,,
93360,182.34375,2917,-1426.0,,,
93361,182.345703125,2917,-1629.0,,,
93362,182.34765625,2917,-1810.0,,,
93363,182.349609375,2917,-1850.0,,,
93364,182.3515625,2917,-1845.0,,,
93365,182.353515625,2917,-1846.0,,,
93366,182.35546875,2917,-1884.0,,,
93367,182.357421875,2917,-1924.0,,,
93368,182.359375,2917,-1890.0,,,
93369,182.361328125,2917,-1805.0,,,
93370,182.36328125,2917,-1758.0,,,
93371,182.365234375,2917,-1755.0,,,
93372,182.3671875,2917,-1752.0,,,
93373,182.369140625,2917,-1655.0,,,
93374,182.37109375,2917,-1448.0,,,
93375,182.373046875,2917,-1276.0,,,
93376,182.375,2918,-1203.0,,,
93377,182.376953125,2918,-1174.0,,,
93378,182.37890625,2918,-1116.0,,,
93379,182.380859375,2918,-1000.0,,,
93380,182.3828125,2918,-869.0,,,
93381,182.384765625,2918,-796.0,,,
93382,182.38671875,2918,-716.0,,,
93383,182.388671875,2918,-588.0,,,
93384,182.390625,2918,-420.0,,,
93385,182.392578125,2918,-249.0,,,
93386,182.39453125,2918,-135.0,,,
93387,182.396484375,2918,-12.0,,,
93388,182.3984375,2918,146.0,,,
93389,182.400390625,2918,298.0,,,
93390,182.40234375,2918,419.0,,,
93391,182.404296875,2918,489.0,,,
93392,182.40625,2918,523.0,,,
93393,182.408203125,2918,567.0,,,
93394,182.41015625,2918,665.0,,,
93395,182.412109375,2918,773.0,,,
93396,182.4140625,2918,835.0,,,
93397,182.416015625,2918,900.0,,,
93398,182.41796875,2918,973.0,,,
93399,182.419921875,2918,1001.0,,,
93400,182.421875,2918,998.0,,,
93401,182.423828125,2918,994.0,,,
93402,182.42578125,2918,992.0,,,
93403,182.427734375,2918,997.0,,,
93404,182.4296875,2918,1000.0,,,
93405,182.431640625,2918,1003.0,,,
93406,182.43359375,2918,992.0,,,
93407,182.435546875,2918,976.0,,,
93408,182.4375,2919,970.0,,,
93409,182.439453125,2919,967.0,,,
93410,182.44140625,2919,955.0,,,
93411,182.443359375,2919,930.0,,,
93412,182.4453125,2919,902.0,,,
93413,182.447265625,2919,868.0,,,
93414,182.44921875,2919,826.0,,,
93415,182.451171875,2919,796.0,,,
93416,182.453125,2919,787.0,,,
93417,182.455078125,2919,785.0,,,
93418,182.45703125,2919,755.0,,,
93419,182.458984375,2919,715.0,,,
93420,182.4609375,2919,701.0,,,
93421,182.462890625,2919,701.0,,,
93422,182.46484375,2919,696.0,,,
93423,182.466796875,2919,678.0,,,
93424,182.46875,2919,660.0,,,
93425,182.470703125,2919,646.0,,,
93426,182.47265625,2919,621.0,,,
93427,182.474609375,2919,596.0,,,
93428,182.4765625,2919,579.0,,,
93429,182.478515625,2919,557.0,,,
93430,182.48046875,2919,537.0,,,
93431,182.482421875,2919,518.0,,,
93432,182.484375,2919,505.0,,,
93433,182.486328125,2919,500.0,,,
93434,182.48828125,2919,491.0,,,
93435,182.490234375,2919,483.0,,,
93436,182.4921875,2919,477.0,,,
93437,182.494140625,2919,461.0,,,
93438,182.49609375,2919,439.0,,,
93439,182.498046875,2919,422.0,,,
93440,182.5,2920,410.0,,,
93441,182.501953125,2920,402.0,,,
93442,182.50390625,2920,391.0,,,
93443,182.505859375,2920,379.0,,,
93444,182.5078125,2920,364.0,,,
93445,182.509765625,2920,359.0,,,
93446,182.51171875,2920,355.0,33553.0,182.51171875,0.001953125
93447,182.513671875,2920,355.0,33554.0,182.513671875,0.0
93448,182.515625,2920,344.0,,,
93449,182.517578125,2920,329.0,,,
93450,182.51953125,2920,310.0,,,
93451,182.521484375,2920,293.0,,,
93452,182.5234375,2920,283.0,,,
93453,182.525390625,2920,278.0,,,
93454,182.52734375,2920,268.0,,,
93455,182.529296875,2920,259.0,,,
93456,182.53125,2920,248.0,,,
93457,182.533203125,2920,236.0,,,
93458,182.53515625,2920,230.0,,,
93459,182.537109375,2920,220.0,,,
93460,182.5390625,2920,203.0,,,
93461,182.541015625,2920,182.0,,,
93462,182.54296875,2920,180.0,,,
93463,182.544921875,2920,180.0,,,
93464,182.546875,2920,166.0,,,
93465,182.548828125,2920,136.0,,,
93466,182.55078125,2920,108.0,,,
93467,182.552734375,2920,76.0,,,
93468,182.5546875,2920,33.0,,,
93469,182.556640625,2920,-18.0,,,
93470,182.55859375,2920,-113.0,,,
93471,182.560546875,2920,-375.0,,,
93472,182.5625,2921,-936.0,,,
93473,182.564453125,2921,-1593.0,,,
93474,182.56640625,2921,-2048.0,,,
93475,182.568359375,2921,-2048.0,,,
93476,182.5703125,2921,-2048.0,,,
93477,182.572265625,2921,-2048.0,,,
93478,182.57421875,2921,-2048.0,,,
93479,182.576171875,2921,-2048.0,,,
93480,182.578125,2921,-2048.0,,,
93481,182.580078125,2921,-2048.0,,,
93482,182.58203125,2921,-2048.0,,,
93483,182.583984375,2921,-2048.0,,,
93484,182.5859375,2921,-2048.0,,,
93485,182.587890625,2921,-2048.0,,,
93486,182.58984375,2921,-2048.0,,,
93487,182.591796875,2921,-2048.0,,,
93488,182.59375,2921,-2048.0,,,
93489,182.595703125,2921,-2048.0,,,
93490,182.59765625,2921,-2048.0,,,
93491,182.599609375,2921,-1821.0,,,
93492,182.6015625,2921,-1539.0,,,
93493,182.603515625,2921,-1274.0,,,
93494,182.60546875,2921,-1063.0,,,
93495,182.607421875,2921,-856.0,,,
93496,182.609375,2921,-666.0,,,
93497,182.611328125,2921,-502.0,,,
93498,182.61328125,2921,-333.0,,,
93499,182.615234375,2921,-187.0,,,
93500,182.6171875,2921,-140.0,,,
93501,182.619140625,2921,-140.0,,,
93502,182.62109375,2921,-121.0,,,
93503,182.623046875,2921,-109.0,,,
93504,182.625,2922,-149.0,,,
93505,182.626953125,2922,-289.0,,,
93506,182.62890625,2922,-474.0,,,
93507,182.630859375,2922,-669.0,,,
93508,182.6328125,2922,-865.0,,,
93509,182.634765625,2922,-1030.0,,,
93510,182.63671875,2922,-1212.0,,,
93511,182.638671875,2922,-1524.0,,,
93512,182.640625,2922,-1914.0,,,
93513,182.642578125,2922,-2048.0,,,
93514,182.64453125,2922,-2048.0,,,
93515,182.646484375,2922,-2048.0,,,
93516,182.6484375,2922,-2044.0,,,
93517,182.650390625,2922,-1966.0,,,
93518,182.65234375,2922,-1894.0,,,
93519,182.654296875,2922,-1821.0,,,
93520,182.65625,2922,-1754.0,,,
93521,182.658203125,2922,-1689.0,,,
93522,182.66015625,2922,-1626.0,,,
93523,182.662109375,2922,-1564.0,,,
93524,182.6640625,2922,-1509.0,,,
93525,182.666015625,2922,-1451.0,,,
93526,182.66796875,2922,-1397.0,,,
93527,182.669921875,2922,-1346.0,,,
93528,182.671875,2922,-1294.0,,,
93529,182.673828125,2922,-1245.0,,,
93530,182.67578125,2922,-1198.0,,,
93531,182.677734375,2922,-1154.0,,,
93532,182.6796875,2922,-1110.0,,,
93533,182.681640625,2922,-1067.0,,,
93534,182.68359375,2922,-1028.0,,,
93535,182.685546875,2922,-987.0,,,
93536,182.6875,2923,-951.0,,,
93537,182.689453125,2923,-915.0,,,
93538,182.69140625,2923,-881.0,,,
93539,182.693359375,2923,-845.0,,,
93540,182.6953125,2923,-812.0,,,
93541,182.697265625,2923,-781.0,,,
93542,182.69921875,2923,-753.0,,,
93543,182.701171875,2923,-724.0,,,
93544,182.703125,2923,-695.0,,,
93545,182.705078125,2923,-668.0,,,
93546,182.70703125,2923,-643.0,,,
93547,182.708984375,2923,-618.0,,,
93548,182.7109375,2923,-594.0,,,
93549,182.712890625,2923,-570.0,,,
93550,182.71484375,2923,-549.0,,,
93551,182.716796875,2923,-526.0,,,
93552,182.71875,2923,-506.0,,,
93553,182.720703125,2923,-486.0,,,
93554,182.72265625,2923,-467.0,,,
93555,182.724609375,2923,-449.0,,,
93556,182.7265625,2923,-429.0,,,
93557,182.728515625,2923,-412.0,,,
93558,182.73046875,2923,-395.0,,,
93559,182.732421875,2923,-380.0,,,
93560,182.734375,2923,-364.0,,,
93561,182.736328125,2923,-349.0,,,
93562,182.73828125,2923,-337.0,,,
93563,182.740234375,2923,-323.0,,,
93564,182.7421875,2923,-309.0,,,
93565,182.744140625,2923,-296.0,,,
93566,182.74609375,2923,-283.0,,,
93567,182.748046875,2923,-273.0,,,
93568,182.75,2924,-261.0,,,
93569,182.751953125,2924,-249.0,,,
93570,182.75390625,2924,-238.0,,,
93571,182.755859375,2924,-229.0,,,
93572,182.7578125,2924,-218.0,,,
93573,182.759765625,2924,-210.0,,,
93574,182.76171875,2924,-200.0,,,
93575,182.763671875,2924,-193.0,,,
93576,182.765625,2924,-183.0,,,
93577,182.767578125,2924,-174.0,,,
93578,182.76953125,2924,-168.0,,,
93579,182.771484375,2924,-161.0,,,
93580,182.7734375,2924,-152.0,,,
93581,182.775390625,2924,-146.0,,,
93582,182.77734375,2924,-138.0,,,
93583,182.779296875,2924,-132.0,,,
93584,182.78125,2924,-124.0,,,
93585,182.783203125,2924,-119.0,,,
93586,182.78515625,2924,-115.0,,,
93587,182.787109375,2924,-108.0,,,
93588,182.7890625,2924,-102.0,,,
93589,182.791015625,2924,-98.0,,,
93590,182.79296875,2924,-91.0,,,
93591,182.794921875,2924,-85.0,,,
93592,182.796875,2924,-74.0,,,
93593,182.798828125,2924,-50.0,,,
93594,182.80078125,2924,5.0,,,
93595,182.802734375,2924,86.0,,,
93596,182.8046875,2924,181.0,,,
93597,182.806640625,2924,280.0,,,
93598,182.80859375,2924,400.0,,,
93599,182.810546875,2924,550.0,,,
93600,182.8125,2925,749.0,,,
93601,182.814453125,2925,983.0,,,
93602,182.81640625,2925,1204.0,,,
93603,182.818359375,2925,1416.0,,,
93604,182.8203125,2925,1606.0,,,
93605,182.822265625,2925,1796.0,,,
93606,182.82421875,2925,1990.0,,,
93607,182.826171875,2925,2047.0,,,
93608,182.828125,2925,2047.0,,,
93609,182.830078125,2925,2047.0,,,
93610,182.83203125,2925,2047.0,,,
93611,182.833984375,2925,2047.0,,,
93612,182.8359375,2925,2047.0,,,
93613,182.837890625,2925,2047.0,,,
93614,182.83984375,2925,2047.0,,,
93615,182.841796875,2925,2047.0,,,
93616,182.84375,2925,2047.0,,,
93617,182.845703125,2925,2047.0,,,
93618,182.84765625,2925,2047.0,,,
93619,182.849609375,2925,2047.0,,,
93620,182.8515625,2925,2047.0,,,
93621,182.853515625,2925,2047.0,,,
93622,182.85546875,2925,2047.0,,,
93623,182.857421875,2925,2047.0,,,
93624,182.859375,2925,2047.0,,,
93625,182.861328125,2925,2047.0,,,
93626,182.86328125,2925,2047.0,,,
93627,182.865234375,2925,2047.0,,,
93628,182.8671875,2925,2047.0,,,
93629,182.869140625,2925,2047.0,,,
93630,182.87109375,2925,2047.0,,,
93631,182.873046875,2925,2047.0,,,
93632,182.875,2926,2047.0,,,
93633,182.876953125,2926,2047.0,,,
93634,182.87890625,2926,2047.0,,,
93635,182.880859375,2926,2047.0,,,
93636,182.8828125,2926,1980.0,,,
93637,182.884765625,2926,1912.0,,,
93638,182.88671875,2926,1844.0,,,
93639,182.888671875,2926,1780.0,,,
93640,182.890625,2926,1718.0,,,
93641,182.892578125,2926,1657.0,,,
93642,182.89453125,2926,1600.0,,,
93643,182.896484375,2926,1542.0,,,
93644,182.8984375,2926,1488.0,,,
93645,182.900390625,2926,1434.0,,,
93646,182.90234375,2926,1384.0,,,
93647,182.904296875,2926,1335.0,,,
93648,182.90625,2926,1287.0,,,
93649,182.908203125,2926,1241.0,,,
93650,182.91015625,2926,1200.0,,,
93651,182.912109375,2926,1156.0,,,
93652,182.9140625,2926,1114.0,,,
93653,182.916015625,2926,1076.0,,,
93654,182.91796875,2926,1037.0,,,
93655,182.919921875,2926,1000.0,,,
93656,182.921875,2926,965.0,,,
93657,182.923828125,2926,932.0,,,
93658,182.92578125,2926,899.0,,,
93659,182.927734375,2926,868.0,,,
93660,182.9296875,2926,837.0,,,
93661,182.931640625,2926,808.0,,,
93662,182.93359375,2926,779.0,,,
93663,182.935546875,2926,754.0,,,
93664,182.9375,2927,726.0,,,
93665,182.939453125,2927,700.0,,,
93666,182.94140625,2927,677.0,,,
93667,182.943359375,2927,653.0,,,
93668,182.9453125,2927,631.0,,,
93669,182.947265625,2927,610.0,,,
93670,182.94921875,2927,588.0,,,
93671,182.951171875,2927,569.0,,,
93672,182.953125,2927,550.0,,,
93673,182.955078125,2927,531.0,,,
93674,182.95703125,2927,513.0,,,
93675,182.958984375,2927,496.0,,,
93676,182.9609375,2927,480.0,,,
93677,182.962890625,2927,461.0,,,
93678,182.96484375,2927,448.0,,,
93679,182.966796875,2927,432.0,,,
93680,182.96875,2927,418.0,,,
93681,182.970703125,2927,404.0,,,
93682,182.97265625,2927,390.0,,,
93683,182.974609375,2927,377.0,,,
93684,182.9765625,2927,364.0,,,
93685,182.978515625,2927,354.0,,,
93686,182.98046875,2927,342.0,,,
93687,182.982421875,2927,330.0,,,
93688,182.984375,2927,320.0,,,
93689,182.986328125,2927,309.0,,,
93690,182.98828125,2927,299.0,,,
93691,182.990234375,2927,290.0,,,
93692,182.9921875,2927,281.0,,,
93693,182.994140625,2927,273.0,,,
93694,182.99609375,2927,263.0,,,
93695,182.998046875,2927,256.0,,,
93696,183.0,2928,247.0,,,
93697,183.001953125,2928,240.0,,,
93698,183.00390625,2928,232.0,,,
93699,183.005859375,2928,226.0,,,
93700,183.0078125,2928,218.0,,,
93701,183.009765625,2928,212.0,,,
93702,183.01171875,2928,204.0,,,
93703,183.013671875,2928,199.0,,,
93704,183.015625,2928,194.0,,,
93705,183.017578125,2928,187.0,,,
93706,183.01953125,2928,182.0,,,
93707,183.021484375,2928,178.0,,,
93708,183.0234375,2928,171.0,,,
93709,183.025390625,2928,166.0,,,
93710,183.02734375,2928,163.0,,,
93711,183.029296875,2928,156.0,,,
93712,183.03125,2928,153.0,,,
93713,183.033203125,2928,149.0,,,
93714,183.03515625,2928,146.0,,,
93715,183.037109375,2928,140.0,,,
93716,183.0390625,2928,136.0,,,
93717,183.041015625,2928,134.0,,,
93718,183.04296875,2928,130.0,,,
93719,183.044921875,2928,125.0,,,
93720,183.046875,2928,123.0,,,
93721,183.048828125,2928,120.0,,,
93722,183.05078125,2928,117.0,,,
93723,183.052734375,2928,115.0,,,
93724,183.0546875,2928,112.0,,,
93725,183.056640625,2928,107.0,,,
93726,183.05859375,2928,106.0,,,
93727,183.060546875,2928,103.0,,,
93728,183.0625,2929,101.0,,,
93729,183.064453125,2929,99.0,,,
93730,183.06640625,2929,97.0,,,
93731,183.068359375,2929,96.0,,,
93732,183.0703125,2929,91.0,,,
93733,183.072265625,2929,90.0,,,
93734,183.07421875,2929,88.0,,,
93735,183.076171875,2929,86.0,,,
93736,183.078125,2929,85.0,,,
93737,183.080078125,2929,84.0,,,
93738,183.08203125,2929,82.0,,,
93739,183.083984375,2929,81.0,,,
93740,183.0859375,2929,80.0,,,
93741,183.087890625,2929,76.0,,,
93742,183.08984375,2929,74.0,,,
93743,183.091796875,2929,73.0,,,
93744,183.09375,2929,72.0,,,
93745,183.095703125,2929,71.0,,,
93746,183.09765625,2929,70.0,,,
93747,183.099609375,2929,69.0,,,
93748,183.1015625,2929,68.0,,,
93749,183.103515625,2929,67.0,,,
93750,183.10546875,2929,66.0,,,
93751,183.107421875,2929,65.0,,,
93752,183.109375,2929,64.0,,,
93753,183.111328125,2929,64.0,,,
93754,183.11328125,2929,61.0,,,
93755,183.115234375,2929,60.0,,,
93756,183.1171875,2929,59.0,,,
93757,183.119140625,2929,58.0,,,
93758,183.12109375,2929,57.0,,,
93759,183.123046875,2929,57.0,,,
93760,183.125,2930,57.0,,,
93761,183.126953125,2930,56.0,,,
93762,183.12890625,2930,55.0,,,
93763,183.130859375,2930,55.0,,,
93764,183.1328125,2930,55.0,,,
93765,183.134765625,2930,54.0,,,
93766,183.13671875,2930,54.0,,,
93767,183.138671875,2930,53.0,,,
93768,183.140625,2930,52.0,,,
93769,183.142578125,2930,52.0,,,
93770,183.14453125,2930,51.0,,,
93771,183.146484375,2930,51.0,,,
93772,183.1484375,2930,51.0,,,
93773,183.150390625,2930,51.0,,,
93774,183.15234375,2930,50.0,,,
93775,183.154296875,2930,50.0,,,
93776,183.15625,2930,49.0,,,
93777,183.158203125,2930,49.0,,,
93778,183.16015625,2930,49.0,,,
93779,183.162109375,2930,50.0,,,
93780,183.1640625,2930,49.0,,,
93781,183.166015625,2930,49.0,,,
93782,183.16796875,2930,48.0,,,
93783,183.169921875,2930,49.0,,,
93784,183.171875,2930,49.0,,,
93785,183.173828125,2930,49.0,,,
93786,183.17578125,2930,45.0,,,
93787,183.177734375,2930,48.0,,,
93788,183.1796875,2930,45.0,,,
93789,183.181640625,2930,44.0,,,
93790,183.18359375,2930,44.0,,,
93791,183.185546875,2930,44.0,,,
93792,183.1875,2931,44.0,,,
93793,183.189453125,2931,44.0,,,
93794,183.19140625,2931,44.0,,,
93795,183.193359375,2931,43.0,,,
93796,183.1953125,2931,43.0,,,
93797,183.197265625,2931,43.0,,,
93798,183.19921875,2931,43.0,,,
93799,183.201171875,2931,42.0,,,
93800,183.203125,2931,42.0,,,
93801,183.205078125,2931,42.0,,,
93802,183.20703125,2931,41.0,,,
93803,183.208984375,2931,41.0,,,
93804,183.2109375,2931,41.0,,,
93805,183.212890625,2931,41.0,,,
93806,183.21484375,2931,41.0,,,
93807,183.216796875,2931,41.0,,,
93808,183.21875,2931,40.0,,,
93809,183.220703125,2931,40.0,,,
93810,183.22265625,2931,40.0,,,
93811,183.224609375,2931,40.0,,,
93812,183.2265625,2931,40.0,,,
93813,183.228515625,2931,39.0,,,
93814,183.23046875,2931,39.0,,,
93815,183.232421875,2931,40.0,,,
93816,183.234375,2931,39.0,,,
93817,183.236328125,2931,39.0,,,
93818,183.23828125,2931,38.0,,,
93819,183.240234375,2931,39.0,,,
93820,183.2421875,2931,39.0,,,
93821,183.244140625,2931,39.0,,,
93822,183.24609375,2931,39.0,,,
93823,183.248046875,2931,38.0,,,
93824,183.25,2932,38.0,,,
93825,183.251953125,2932,38.0,,,
93826,183.25390625,2932,38.0,,,
93827,183.255859375,2932,38.0,,,
93828,183.2578125,2932,39.0,,,
93829,183.259765625,2932,38.0,,,
93830,183.26171875,2932,38.0,,,
93831,183.263671875,2932,38.0,,,
93832,183.265625,2932,38.0,,,
93833,183.267578125,2932,38.0,,,
93834,183.26953125,2932,39.0,,,
93835,183.271484375,2932,38.0,,,
93836,183.2734375,2932,38.0,,,
93837,183.275390625,2932,38.0,,,
93838,183.27734375,2932,38.0,,,
93839,183.279296875,2932,38.0,,,
93840,183.28125,2932,38.0,,,
93841,183.283203125,2932,38.0,,,
93842,183.28515625,2932,38.0,,,
93843,183.287109375,2932,38.0,,,
93844,183.2890625,2932,38.0,,,
93845,183.291015625,2932,38.0,,,
93846,183.29296875,2932,38.0,,,
93847,183.294921875,2932,38.0,,,
93848,183.296875,2932,38.0,,,
93849,183.298828125,2932,38.0,,,
93850,183.30078125,2932,38.0,,,
93851,183.302734375,2932,38.0,,,
93852,183.3046875,2932,38.0,,,
93853,183.306640625,2932,38.0,,,
93854,183.30859375,2932,38.0,,,
93855,183.310546875,2932,38.0,,,
93856,183.3125,2933,38.0,,,
93857,183.314453125,2933,38.0,,,
93858,183.31640625,2933,38.0,,,
93859,183.318359375,2933,39.0,,,
93860,183.3203125,2933,39.0,,,
93861,183.322265625,2933,39.0,,,
93862,183.32421875,2933,39.0,,,
93863,183.326171875,2933,38.0,,,
93864,183.328125,2933,38.0,,,
93865,183.330078125,2933,38.0,,,
93866,183.33203125,2933,39.0,,,
93867,183.333984375,2933,38.0,,,
93868,183.3359375,2933,39.0,,,
93869,183.337890625,2933,38.0,,,
93870,183.33984375,2933,38.0,,,
93871,183.341796875,2933,38.0,,,
93872,183.34375,2933,38.0,,,
93873,183.345703125,2933,38.0,,,
93874,183.34765625,2933,38.0,,,
93875,183.349609375,2933,38.0,,,
93876,183.3515625,2933,39.0,,,
93877,183.353515625,2933,38.0,,,
93878,183.35546875,2933,38.0,,,
93879,183.357421875,2933,39.0,,,
93880,183.359375,2933,38.0,,,
93881,183.361328125,2933,38.0,,,
93882,183.36328125,2933,39.0,,,
93883,183.365234375,2933,39.0,,,
93884,183.3671875,2933,38.0,,,
93885,183.369140625,2933,39.0,,,
93886,183.37109375,2933,38.0,,,
93887,183.373046875,2933,39.0,,,
93888,183.375,2934,39.0,,,
93889,183.376953125,2934,39.0,,,
93890,183.37890625,2934,39.0,,,
93891,183.380859375,2934,40.0,,,
93892,183.3828125,2934,39.0,,,
93893,183.384765625,2934,39.0,,,
93894,183.38671875,2934,39.0,,,
93895,183.388671875,2934,39.0,,,
93896,183.390625,2934,39.0,,,
93897,183.392578125,2934,39.0,,,
93898,183.39453125,2934,39.0,,,
93899,183.396484375,2934,39.0,,,
93900,183.3984375,2934,39.0,,,
93901,183.400390625,2934,39.0,,,
93902,183.40234375,2934,39.0,,,
93903,183.404296875,2934,39.0,,,
93904,183.40625,2934,39.0,,,
93905,183.408203125,2934,39.0,,,
93906,183.41015625,2934,39.0,,,
93907,183.412109375,2934,39.0,,,
93908,183.4140625,2934,39.0,,,
93909,183.416015625,2934,39.0,,,
93910,183.41796875,2934,39.0,,,
93911,183.419921875,2934,39.0,,,
93912,183.421875,2934,39.0,,,
93913,183.423828125,2934,38.0,,,
93914,183.42578125,2934,39.0,,,
93915,183.427734375,2934,39.0,,,
93916,183.4296875,2934,39.0,,,
93917,183.431640625,2934,39.0,,,
93918,183.43359375,2934,39.0,,,
93919,183.435546875,2934,39.0,,,
93920,183.4375,2935,39.0,,,
93921,183.439453125,2935,39.0,,,
93922,183.44140625,2935,39.0,,,
93923,183.443359375,2935,39.0,,,
93924,183.4453125,2935,39.0,,,
93925,183.447265625,2935,39.0,,,
93926,183.44921875,2935,39.0,,,
93927,183.451171875,2935,40.0,,,
93928,183.453125,2935,39.0,,,
93929,183.455078125,2935,38.0,,,
93930,183.45703125,2935,39.0,,,
93931,183.458984375,2935,39.0,,,
93932,183.4609375,2935,39.0,,,
93933,183.462890625,2935,39.0,,,
93934,183.46484375,2935,39.0,,,
93935,183.466796875,2935,39.0,,,
93936,183.46875,2935,39.0,,,
93937,183.470703125,2935,39.0,,,
93938,183.47265625,2935,39.0,,,
93939,183.474609375,2935,39.0,,,
93940,183.4765625,2935,39.0,,,
93941,183.478515625,2935,39.0,,,
93942,183.48046875,2935,39.0,,,
93943,183.482421875,2935,39.0,,,
93944,183.484375,2935,38.0,,,
93945,183.486328125,2935,38.0,,,
93946,183.48828125,2935,39.0,,,
93947,183.490234375,2935,39.0,,,
93948,183.4921875,2935,39.0,,,
93949,183.494140625,2935,38.0,,,
93950,183.49609375,2935,38.0,,,
93951,183.498046875,2935,38.0,,,
93952,183.5,2936,39.0,,,
93953,183.501953125,2936,38.0,,,
93954,183.50390625,2936,39.0,,,
93955,183.505859375,2936,38.0,,,
93956,183.5078125,2936,38.0,,,
93957,183.509765625,2936,38.0,,,
93958,183.51171875,2936,38.0,,,
93959,183.513671875,2936,38.0,,,
93960,183.515625,2936,38.0,,,
93961,183.517578125,2936,38.0,,,
93962,183.51953125,2936,38.0,,,
93963,183.521484375,2936,38.0,,,
93964,183.5234375,2936,38.0,,,
93965,183.525390625,2936,38.0,,,
93966,183.52734375,2936,38.0,,,
93967,183.529296875,2936,38.0,,,
93968,183.53125,2936,38.0,,,
93969,183.533203125,2936,38.0,,,
93970,183.53515625,2936,38.0,,,
93971,183.537109375,2936,38.0,,,
93972,183.5390625,2936,38.0,,,
93973,183.541015625,2936,38.0,,,
93974,183.54296875,2936,38.0,,,
93975,183.544921875,2936,37.0,,,
93976,183.546875,2936,38.0,,,
93977,183.548828125,2936,38.0,,,
93978,183.55078125,2936,38.0,,,
93979,183.552734375,2936,38.0,,,
93980,183.5546875,2936,38.0,,,
93981,183.556640625,2936,38.0,,,
93982,183.55859375,2936,38.0,,,
93983,183.560546875,2936,38.0,,,
93984,183.5625,2937,38.0,,,
93985,183.564453125,2937,38.0,,,
93986,183.56640625,2937,38.0,,,
93987,183.568359375,2937,38.0,,,
93988,183.5703125,2937,37.0,,,
93989,183.572265625,2937,37.0,,,
93990,183.57421875,2937,38.0,,,
93991,183.576171875,2937,38.0,,,
93992,183.578125,2937,38.0,,,
93993,183.580078125,2937,38.0,,,
93994,183.58203125,2937,38.0,,,
93995,183.583984375,2937,38.0,,,
93996,183.5859375,2937,38.0,,,
93997,183.587890625,2937,38.0,,,
93998,183.58984375,2937,38.0,,,
93999,183.591796875,2937,38.0,,,
94000,183.59375,2937,38.0,,,
94001,183.595703125,2937,38.0,,,
94002,183.59765625,2937,38.0,,,
94003,183.599609375,2937,38.0,,,
94004,183.6015625,2937,38.0,,,
94005,183.603515625,2937,38.0,,,
94006,183.60546875,2937,38.0,,,
94007,183.607421875,2937,38.0,,,
94008,183.609375,2937,38.0,,,
94009,183.611328125,2937,38.0,,,
94010,183.61328125,2937,38.0,,,
94011,183.615234375,2937,38.0,,,
94012,183.6171875,2937,38.0,,,
94013,183.619140625,2937,38.0,,,
94014,183.62109375,2937,38.0,,,
94015,183.623046875,2937,38.0,,,
94016,183.625,2938,38.0,,,
94017,183.626953125,2938,38.0,,,
94018,183.62890625,2938,38.0,,,
94019,183.630859375,2938,38.0,,,
94020,183.6328125,2938,37.0,,,
94021,183.634765625,2938,38.0,,,
94022,183.63671875,2938,38.0,,,
94023,183.638671875,2938,38.0,,,
94024,183.640625,2938,38.0,,,
94025,183.642578125,2938,38.0,,,
94026,183.64453125,2938,38.0,,,
94027,183.646484375,2938,38.0,,,
94028,183.6484375,2938,37.0,,,
94029,183.650390625,2938,38.0,,,
94030,183.65234375,2938,38.0,,,
94031,183.654296875,2938,38.0,,,
94032,183.65625,2938,38.0,,,
94033,183.658203125,2938,38.0,,,
94034,183.66015625,2938,38.0,,,
94035,183.662109375,2938,38.0,,,
94036,183.6640625,2938,38.0,,,
94037,183.666015625,2938,38.0,,,
94038,183.66796875,2938,38.0,,,
94039,183.669921875,2938,38.0,,,
94040,183.671875,2938,38.0,,,
94041,183.673828125,2938,38.0,,,
94042,183.67578125,2938,38.0,,,
94043,183.677734375,2938,38.0,,,
94044,183.6796875,2938,38.0,,,
94045,183.681640625,2938,38.0,,,
94046,183.68359375,2938,38.0,,,
94047,183.685546875,2938,38.0,,,
94048,183.6875,2939,38.0,,,
94049,183.689453125,2939,39.0,,,
94050,183.69140625,2939,38.0,,,
94051,183.693359375,2939,38.0,,,
94052,183.6953125,2939,38.0,,,
94053,183.697265625,2939,38.0,,,
94054,183.69921875,2939,38.0,,,
94055,183.701171875,2939,38.0,,,
94056,183.703125,2939,38.0,,,
94057,183.705078125,2939,38.0,,,
94058,183.70703125,2939,39.0,,,
94059,183.708984375,2939,38.0,,,
94060,183.7109375,2939,38.0,,,
94061,183.712890625,2939,38.0,,,
94062,183.71484375,2939,38.0,,,
94063,183.716796875,2939,38.0,,,
94064,183.71875,2939,38.0,,,
94065,183.720703125,2939,39.0,,,
94066,183.72265625,2939,38.0,,,
94067,183.724609375,2939,38.0,,,
94068,183.7265625,2939,38.0,,,
94069,183.728515625,2939,38.0,,,
94070,183.73046875,2939,38.0,,,
94071,183.732421875,2939,38.0,,,
94072,183.734375,2939,38.0,,,
94073,183.736328125,2939,38.0,,,
94074,183.73828125,2939,38.0,,,
94075,183.740234375,2939,38.0,,,
94076,183.7421875,2939,38.0,,,
94077,183.744140625,2939,38.0,,,
94078,183.74609375,2939,38.0,,,
94079,183.748046875,2939,38.0,,,
94080,183.75,2940,38.0,,,
94081,183.751953125,2940,38.0,,,
94082,183.75390625,2940,38.0,,,
94083,183.755859375,2940,38.0,,,
94084,183.7578125,2940,37.0,,,
94085,183.759765625,2940,38.0,,,
94086,183.76171875,2940,38.0,,,
94087,183.763671875,2940,38.0,,,
94088,183.765625,2940,38.0,,,
94089,183.767578125,2940,38.0,,,
94090,183.76953125,2940,38.0,,,
94091,183.771484375,2940,38.0,,,
94092,183.7734375,2940,38.0,,,
94093,183.775390625,2940,38.0,,,
94094,183.77734375,2940,38.0,,,
94095,183.779296875,2940,38.0,,,
94096,183.78125,2940,38.0,,,
94097,183.783203125,2940,38.0,,,
94098,183.78515625,2940,38.0,,,
94099,183.787109375,2940,38.0,,,
94100,183.7890625,2940,38.0,,,
94101,183.791015625,2940,38.0,,,
94102,183.79296875,2940,38.0,,,
94103,183.794921875,2940,38.0,,,
94104,183.796875,2940,38.0,,,
94105,183.798828125,2940,38.0,,,
94106,183.80078125,2940,38.0,,,
94107,183.802734375,2940,38.0,,,
94108,183.8046875,2940,38.0,,,
94109,183.806640625,2940,38.0,,,
94110,183.80859375,2940,38.0,,,
94111,183.810546875,2940,39.0,,,
94112,183.8125,2941,39.0,,,
94113,183.814453125,2941,38.0,,,
94114,183.81640625,2941,39.0,,,
94115,183.818359375,2941,39.0,,,
94116,183.8203125,2941,39.0,,,
94117,183.822265625,2941,39.0,,,
94118,183.82421875,2941,38.0,,,
94119,183.826171875,2941,38.0,,,
94120,183.828125,2941,38.0,,,
94121,183.830078125,2941,38.0,,,
94122,183.83203125,2941,38.0,,,
94123,183.833984375,2941,37.0,,,
94124,183.8359375,2941,37.0,,,
94125,183.837890625,2941,38.0,,,
94126,183.83984375,2941,38.0,,,
94127,183.841796875,2941,38.0,,,
94128,183.84375,2941,37.0,,,
94129,183.845703125,2941,38.0,,,
94130,183.84765625,2941,37.0,,,
94131,183.849609375,2941,37.0,,,
94132,183.8515625,2941,37.0,,,
94133,183.853515625,2941,37.0,,,
94134,183.85546875,2941,38.0,,,
94135,183.857421875,2941,38.0,,,
94136,183.859375,2941,37.0,,,
94137,183.861328125,2941,37.0,,,
94138,183.86328125,2941,37.0,,,
94139,183.865234375,2941,37.0,,,
94140,183.8671875,2941,37.0,,,
94141,183.869140625,2941,38.0,,,
94142,183.87109375,2941,38.0,,,
94143,183.873046875,2941,37.0,,,
94144,183.875,2942,37.0,,,
94145,183.876953125,2942,37.0,,,
94146,183.87890625,2942,37.0,,,
94147,183.880859375,2942,38.0,,,
94148,183.8828125,2942,37.0,,,
94149,183.884765625,2942,37.0,,,
94150,183.88671875,2942,38.0,,,
94151,183.888671875,2942,37.0,,,
94152,183.890625,2942,37.0,,,
94153,183.892578125,2942,37.0,,,
94154,183.89453125,2942,37.0,,,
94155,183.896484375,2942,37.0,,,
94156,183.8984375,2942,38.0,,,
94157,183.900390625,2942,38.0,,,
94158,183.90234375,2942,37.0,,,
94159,183.904296875,2942,38.0,,,
94160,183.90625,2942,37.0,,,
94161,183.908203125,2942,37.0,,,
94162,183.91015625,2942,37.0,,,
94163,183.912109375,2942,38.0,,,
94164,183.9140625,2942,38.0,,,
94165,183.916015625,2942,38.0,,,
94166,183.91796875,2942,37.0,,,
94167,183.919921875,2942,37.0,,,
94168,183.921875,2942,38.0,,,
94169,183.923828125,2942,38.0,,,
94170,183.92578125,2942,37.0,,,
94171,183.927734375,2942,38.0,,,
94172,183.9296875,2942,38.0,,,
94173,183.931640625,2942,37.0,,,
94174,183.93359375,2942,37.0,,,
94175,183.935546875,2942,37.0,,,
94176,183.9375,2943,37.0,,,
94177,183.939453125,2943,38.0,,,
94178,183.94140625,2943,37.0,,,
94179,183.943359375,2943,37.0,,,
94180,183.9453125,2943,38.0,,,
94181,183.947265625,2943,38.0,,,
94182,183.94921875,2943,37.0,,,
94183,183.951171875,2943,37.0,,,
94184,183.953125,2943,37.0,,,
94185,183.955078125,2943,37.0,,,
94186,183.95703125,2943,37.0,,,
94187,183.958984375,2943,38.0,,,
94188,183.9609375,2943,37.0,,,
94189,183.962890625,2943,38.0,,,
94190,183.96484375,2943,37.0,,,
94191,183.966796875,2943,37.0,,,
94192,183.96875,2943,37.0,,,
94193,183.970703125,2943,37.0,,,
94194,183.97265625,2943,38.0,,,
94195,183.974609375,2943,38.0,,,
94196,183.9765625,2943,38.0,,,
94197,183.978515625,2943,38.0,,,
94198,183.98046875,2943,38.0,,,
94199,183.982421875,2943,38.0,,,
94200,183.984375,2943,38.0,,,
94201,183.986328125,2943,38.0,,,
94202,183.98828125,2943,38.0,,,
94203,183.990234375,2943,38.0,,,
94204,183.9921875,2943,38.0,,,
94205,183.994140625,2943,38.0,,,
94206,183.99609375,2943,38.0,,,
94207,183.998046875,2943,38.0,,,
94208,184.0,2944,38.0,,,
94209,184.001953125,2944,38.0,,,
94210,184.00390625,2944,38.0,,,
94211,184.005859375,2944,39.0,,,
94212,184.0078125,2944,38.0,,,
94213,184.009765625,2944,38.0,,,
94214,184.01171875,2944,39.0,,,
94215,184.013671875,2944,39.0,,,
94216,184.015625,2944,39.0,,,
94217,184.017578125,2944,39.0,,,
94218,184.01953125,2944,39.0,,,
94219,184.021484375,2944,39.0,,,
94220,184.0234375,2944,39.0,,,
94221,184.025390625,2944,38.0,,,
94222,184.02734375,2944,39.0,,,
94223,184.029296875,2944,38.0,,,
94224,184.03125,2944,38.0,,,
94225,184.033203125,2944,38.0,,,
94226,184.03515625,2944,38.0,,,
94227,184.037109375,2944,38.0,,,
94228,184.0390625,2944,39.0,,,
94229,184.041015625,2944,39.0,,,
94230,184.04296875,2944,39.0,,,
94231,184.044921875,2944,39.0,,,
94232,184.046875,2944,38.0,,,
94233,184.048828125,2944,39.0,,,
94234,184.05078125,2944,39.0,,,
94235,184.052734375,2944,39.0,,,
94236,184.0546875,2944,39.0,,,
94237,184.056640625,2944,39.0,,,
94238,184.05859375,2944,39.0,,,
94239,184.060546875,2944,39.0,,,
94240,184.0625,2945,39.0,,,
94241,184.064453125,2945,39.0,,,
94242,184.06640625,2945,39.0,,,
94243,184.068359375,2945,39.0,,,
94244,184.0703125,2945,39.0,,,
94245,184.072265625,2945,39.0,,,
94246,184.07421875,2945,39.0,,,
94247,184.076171875,2945,39.0,,,
94248,184.078125,2945,39.0,,,
94249,184.080078125,2945,40.0,,,
94250,184.08203125,2945,39.0,,,
94251,184.083984375,2945,40.0,,,
94252,184.0859375,2945,39.0,,,
94253,184.087890625,2945,39.0,,,
94254,184.08984375,2945,39.0,,,
94255,184.091796875,2945,39.0,,,
94256,184.09375,2945,39.0,,,
94257,184.095703125,2945,39.0,,,
94258,184.09765625,2945,39.0,,,
94259,184.099609375,2945,39.0,,,
94260,184.1015625,2945,39.0,,,
94261,184.103515625,2945,39.0,,,
94262,184.10546875,2945,39.0,,,
94263,184.107421875,2945,39.0,,,
94264,184.109375,2945,39.0,,,
94265,184.111328125,2945,39.0,,,
94266,184.11328125,2945,38.0,,,
94267,184.115234375,2945,38.0,,,
94268,184.1171875,2945,39.0,,,
94269,184.119140625,2945,38.0,,,
94270,184.12109375,2945,38.0,,,
94271,184.123046875,2945,39.0,,,
94272,184.125,2946,39.0,,,
94273,184.126953125,2946,39.0,,,
94274,184.12890625,2946,39.0,,,
94275,184.130859375,2946,38.0,,,
94276,184.1328125,2946,39.0,,,
94277,184.134765625,2946,38.0,,,
94278,184.13671875,2946,39.0,,,
94279,184.138671875,2946,39.0,,,
94280,184.140625,2946,39.0,,,
94281,184.142578125,2946,39.0,,,
94282,184.14453125,2946,38.0,,,
94283,184.146484375,2946,38.0,,,
94284,184.1484375,2946,39.0,,,
94285,184.150390625,2946,39.0,,,
94286,184.15234375,2946,39.0,,,
94287,184.154296875,2946,38.0,,,
94288,184.15625,2946,38.0,,,
94289,184.158203125,2946,39.0,,,
94290,184.16015625,2946,39.0,,,
94291,184.162109375,2946,38.0,,,
94292,184.1640625,2946,38.0,,,
94293,184.166015625,2946,38.0,,,
94294,184.16796875,2946,38.0,,,
94295,184.169921875,2946,38.0,,,
94296,184.171875,2946,38.0,,,
94297,184.173828125,2946,39.0,,,
