Time:512Hz,Epoch,Electrode,Event Id,Event Date,Event Duration
0.0000000000,0,69.0000000000,,,
0.0019531250,0,65.0000000000,,,
0.0039062500,0,66.0000000000,,,
0.0058593750,0,76.0000000000,,,
0.0078125000,0,101.0000000000,,,
0.0097656250,0,96.0000000000,,,
0.0117187500,0,59.0000000000,,,
0.0136718750,0,43.0000000000,,,
0.0156250000,0,59.0000000000,,,
0.0175781250,0,70.0000000000,,,
0.0195312500,0,73.0000000000,,,
0.0214843750,0,72.0000000000,,,
0.0234375000,0,61.0000000000,,,
0.0253906250,0,56.0000000000,,,
0.0273437500,0,40.0000000000,,,
0.0292968750,0,10.0000000000,,,
0.0312500000,0,-1.0000000000,,,
0.0332031250,0,4.0000000000,,,
0.0351562500,0,25.0000000000,,,
0.0371093750,0,54.0000000000,,,
0.0390625000,0,73.0000000000,,,
0.0410156250,0,75.0000000000,,,
0.0429687500,0,71.0000000000,,,
0.0449218750,0,61.0000000000,,,
0.0468750000,0,61.0000000000,,,
0.0488281250,0,68.0000000000,,,
0.0507812500,0,59.0000000000,,,
0.0527343750,0,41.0000000000,,,
0.0546875000,0,28.0000000000,,,
0.0566406250,0,9.0000000000,,,
0.0585937500,0,-11.0000000000,,,
0.0605468750,0,-19.0000000000,,,
0.0625000000,1,-2.0000000000,,,
0.0644531250,1,28.0000000000,,,
0.0664062500,1,48.0000000000,,,
0.0683593750,1,37.0000000000,,,
0.0703125000,1,32.0000000000,,,
0.0722656250,1,27.0000000000,,,
0.0742187500,1,10.0000000000,,,
0.0761718750,1,1.0000000000,,,
0.0781250000,1,2.0000000000,,,
0.0800781250,1,0.0000000000,,,
0.0820312500,1,-17.0000000000,,,
0.0839843750,1,-26.0000000000,,,
0.0859375000,1,-21.0000000000,,,
0.0878906250,1,-2.0000000000,,,
0.0898437500,1,6.0000000000,,,
0.0917968750,1,4.0000000000,,,
0.0937500000,1,-5.0000000000,,,
0.0957031250,1,-10.0000000000,,,
0.0976562500,1,-5.0000000000,,,
0.0996093750,1,19.0000000000,,,
0.1015625000,1,49.0000000000,,,
0.1035156250,1,87.0000000000,,,
0.1054687500,1,121.0000000000,,,
0.1074218750,1,120.0000000000,,,
0.1093750000,1,104.0000000000,,,
0.1113281250,1,108.0000000000,,,
0.1132812500,1,130.0000000000,,,
0.1152343750,1,139.0000000000,,,
0.1171875000,1,130.0000000000,,,
0.1191406250,1,105.0000000000,,,
0.1210937500,1,87.0000000000,,,
0.1230468750,1,75.0000000000,,,
0.1250000000,2,69.0000000000,,,
0.1269531250,2,87.0000000000,,,
0.1289062500,2,121.0000000000,,,
0.1308593750,2,151.0000000000,,,
0.1328125000,2,157.0000000000,,,
0.1347656250,2,155.0000000000,,,
0.1367187500,2,157.0000000000,,,
0.1386718750,2,133.0000000000,,,
0.1406250000,2,115.0000000000,,,
0.1425781250,2,134.0000000000,,,
0.1445312500,2,144.0000000000,,,
0.1464843750,2,107.0000000000,,,
0.1484375000,2,29.0000000000,,,
0.1503906250,2,-33.0000000000,,,
0.1523437500,2,-21.0000000000,,,
0.1542968750,2,41.0000000000,,,
0.1562500000,2,123.0000000000,,,
0.1582031250,2,241.0000000000,33552,0.1582031250,0.0000000000
0.1601562500,2,261.0000000000,,,
0.1621093750,2,283.0000000000,,,
0.1640625000,2,301.0000000000,,,
0.1660156250,2,289.0000000000,,,
0.1679687500,2,257.0000000000,,,
0.1699218750,2,236.0000000000,,,
0.1718750000,2,224.0000000000,,,
0.1738281250,2,201.0000000000,,,
0.1757812500,2,178.0000000000,,,
0.1777343750,2,154.0000000000,,,
0.1796875000,2,140.0000000000,,,
0.1816406250,2,130.0000000000,,,
0.1835937500,2,90.0000000000,,,
0.1855468750,2,45.0000000000,,,
0.1875000000,3,10.0000000000,,,
0.1894531250,3,-13.0000000000,,,
0.1914062500,3,-19.0000000000,,,
0.1933593750,3,-8.0000000000,,,
0.1953125000,3,0.0000000000,,,
0.1972656250,3,7.0000000000,,,
0.1992187500,3,27.0000000000,,,
0.2011718750,3,44.0000000000,,,
0.2031250000,3,39.0000000000,,,
0.2050781250,3,23.0000000000,,,
0.2070312500,3,21.0000000000,,,
0.2089843750,3,32.0000000000,,,
0.2109375000,3,23.0000000000,,,
0.2128906250,3,18.0000000000,,,
0.2148437500,3,36.0000000000,,,
0.2167968750,3,44.0000000000,,,
0.2187500000,3,44.0000000000,,,
0.2207031250,3,43.0000000000,,,
0.2226562500,3,43.0000000000,,,
0.2246093750,3,16.0000000000,,,
0.2265625000,3,-21.0000000000,,,
0.2285156250,3,-24.0000000000,,,
0.2304687500,3,-12.0000000000,,,
0.2324218750,3,-20.0000000000,,,
0.2343750000,3,-28.0000000000,,,
0.2363281250,3,-30.0000000000,,,
0.2382812500,3,-28.0000000000,,,
0.2402343750,3,-29.0000000000,,,
0.2421875000,3,-36.0000000000,,,
0.2441406250,3,-35.0000000000,,,
0.2460937500,3,-25.0000000000,,,
0.2480468750,3,-25.0000000000,,,
0.2500000000,4,-24.0000000000,,,
0.2519531250,4,-17.0000000000,,,
0.2539062500,4,-12.0000000000,,,
0.2558593750,4,-2.0000000000,,,
0.2578125000,4,0.0000000000,,,
0.2597656250,4,-25.0000000000,,,
0.2617187500,4,-37.0000000000,,,
0.2636718750,4,-22.0000000000,,,
0.2656250000,4,-1.0000000000,,,
0.2675781250,4,-3.0000000000,,,
0.2695312500,4,-22.0000000000,,,
0.2714843750,4,-24.0000000000,,,
0.2734375000,4,-2.0000000000,,,
0.2753906250,4,27.0000000000,,,
0.2773437500,4,38.0000000000,,,
0.2792968750,4,22.0000000000,,,
0.2812500000,4,-9.0000000000,,,
0.2832031250,4,-25.0000000000,,,
0.2851562500,4,-7.0000000000,,,
0.2871093750,4,17.0000000000,,,
0.2890625000,4,32.0000000000,,,
0.2910156250,4,24.0000000000,,,
0.2929687500,4,9.0000000000,,,
0.2949218750,4,6.0000000000,,,
0.2968750000,4,6.0000000000,,,
0.2988281250,4,9.0000000000,,,
0.3007812500,4,24.0000000000,,,
0.3027343750,4,32.0000000000,,,
0.3046875000,4,35.0000000000,,,
0.3066406250,4,43.0000000000,,,
0.3085937500,4,50.0000000000,,,
0.3105468750,4,49.0000000000,,,
0.3125000000,5,45.0000000000,,,
0.3144531250,5,52.0000000000,,,
0.3164062500,5,42.0000000000,,,
0.3183593750,5,36.0000000000,,,
0.3203125000,5,44.0000000000,,,
0.3222656250,5,49.0000000000,,,
0.3242187500,5,43.0000000000,,,
0.3261718750,5,40.0000000000,,,
0.3281250000,5,38.0000000000,,,
0.3300781250,5,41.0000000000,,,
0.3320312500,5,53.0000000000,,,
0.3339843750,5,51.0000000000,,,
0.3359375000,5,43.0000000000,,,
0.3378906250,5,49.0000000000,,,
0.3398437500,5,50.0000000000,,,
0.3417968750,5,37.0000000000,,,
0.3437500000,5,41.0000000000,,,
0.3457031250,5,59.0000000000,,,
0.3476562500,5,39.0000000000,,,
0.3496093750,5,2.0000000000,,,
0.3515625000,5,-7.0000000000,,,
0.3535156250,5,9.0000000000,,,
0.3554687500,5,20.0000000000,,,
0.3574218750,5,18.0000000000,,,
0.3593750000,5,21.0000000000,,,
0.3613281250,5,43.0000000000,,,
0.3632812500,5,60.0000000000,,,
0.3652343750,5,74.0000000000,,,
0.3671875000,5,84.0000000000,,,
0.3691406250,5,87.0000000000,,,
0.3710937500,5,84.0000000000,,,
0.3730468750,5,76.0000000000,,,
0.3750000000,6,73.0000000000,,,
0.3769531250,6,84.0000000000,,,
0.3789062500,6,90.0000000000,,,
0.3808593750,6,73.0000000000,,,
0.3828125000,6,55.0000000000,,,
0.3847656250,6,53.0000000000,,,
0.3867187500,6,53.0000000000,,,
0.3886718750,6,45.0000000000,,,
0.3906250000,6,34.0000000000,,,
0.3925781250,6,20.0000000000,,,
0.3945312500,6,13.0000000000,,,
0.3964843750,6,22.0000000000,,,
0.3984375000,6,34.0000000000,,,
0.4003906250,6,42.0000000000,,,
0.4023437500,6,36.0000000000,,,
0.4042968750,6,24.0000000000,,,
0.4062500000,6,39.0000000000,,,
0.4082031250,6,60.0000000000,,,
0.4101562500,6,52.0000000000,,,
0.4121093750,6,34.0000000000,,,
0.4140625000,6,40.0000000000,,,
0.4160156250,6,60.0000000000,,,
0.4179687500,6,65.0000000000,,,
0.4199218750,6,65.0000000000,,,
0.4218750000,6,73.0000000000,,,
0.4238281250,6,86.0000000000,,,
0.4257812500,6,103.0000000000,,,
0.4277343750,6,112.0000000000,,,
0.4296875000,6,108.0000000000,,,
0.4316406250,6,117.0000000000,,,
0.4335937500,6,123.0000000000,,,
0.4355468750,6,134.0000000000,,,
0.4375000000,7,151.0000000000,,,
0.4394531250,7,167.0000000000,,,
0.4414062500,7,186.0000000000,,,
0.4433593750,7,203.0000000000,,,
0.4453125000,7,220.0000000000,,,
0.4472656250,7,258.0000000000,,,
0.4492187500,7,301.0000000000,,,
0.4511718750,7,332.0000000000,,,
0.4531250000,7,341.0000000000,,,
0.4550781250,7,345.0000000000,,,
0.4570312500,7,368.0000000000,,,
0.4589843750,7,384.0000000000,,,
0.4609375000,7,394.0000000000,,,
0.4628906250,7,417.0000000000,,,
0.4648437500,7,411.0000000000,,,
0.4667968750,7,376.0000000000,,,
0.4687500000,7,354.0000000000,,,
0.4707031250,7,369.0000000000,,,
0.4726562500,7,381.0000000000,,,
0.4746093750,7,365.0000000000,,,
0.4765625000,7,328.0000000000,,,
0.4785156250,7,297.0000000000,,,
0.4804687500,7,299.0000000000,,,
0.4824218750,7,294.0000000000,,,
0.4843750000,7,268.0000000000,,,
0.4863281250,7,229.0000000000,,,
0.4882812500,7,184.0000000000,,,
0.4902343750,7,130.0000000000,,,
0.4921875000,7,98.0000000000,,,
0.4941406250,7,99.0000000000,,,
0.4960937500,7,89.0000000000,,,
0.4980468750,7,53.0000000000,,,
0.5000000000,8,20.0000000000,,,
0.5019531250,8,-2.0000000000,,,
0.5039062500,8,-7.0000000000,,,
0.5058593750,8,-6.0000000000,,,
0.5078125000,8,-5.0000000000,,,
0.5097656250,8,-30.0000000000,,,
0.5117187500,8,-70.0000000000,,,
0.5136718750,8,-101.0000000000,,,
0.5156250000,8,-126.0000000000,,,
0.5175781250,8,-133.0000000000,,,
0.5195312500,8,-122.0000000000,,,
0.5214843750,8,-119.0000000000,,,
0.5234375000,8,-125.0000000000,,,
0.5253906250,8,-148.0000000000,,,
0.5273437500,8,-164.0000000000,,,
0.5292968750,8,-154.0000000000,,,
0.5312500000,8,-138.0000000000,33553,0.5312500000,0.0019531250
0.5332031250,8,-138.0000000000,33554,0.5332031250,0.0000000000
0.5351562500,8,-137.0000000000,,,
0.5371093750,8,-155.0000000000,,,
0.5390625000,8,-185.0000000000,,,
0.5410156250,8,-202.0000000000,,,
0.5429687500,8,-222.0000000000,,,
0.5449218750,8,-231.0000000000,,,
0.5468750000,8,-222.0000000000,,,
0.5488281250,8,-219.0000000000,,,
0.5507812500,8,-219.0000000000,,,
0.5527343750,8,-214.0000000000,,,
0.5546875000,8,-202.0000000000,,,
0.5566406250,8,-181.0000000000,,,
0.5585937500,8,-134.0000000000,,,
0.5605468750,8,-68.0000000000,,,
0.5625000000,9,-53.0000000000,,,
0.5644531250,9,-90.0000000000,,,
0.5664062500,9,-131.0000000000,,,
0.5683593750,9,-130.0000000000,,,
0.5703125000,9,-119.0000000000,,,
0.5722656250,9,-138.0000000000,,,
0.5742187500,9,-161.0000000000,,,
0.5761718750,9,-174.0000000000,,,
0.5781250000,9,-234.0000000000,,,
0.5800781250,9,-290.0000000000,,,
0.5820312500,9,-247.0000000000,,,
0.5839843750,9,-161.0000000000,,,
0.5859375000,9,-101.0000000000,,,
0.5878906250,9,-76.0000000000,,,
0.5898437500,9,-78.0000000000,,,
0.5917968750,9,-93.0000000000,,,
0.5937500000,9,-87.0000000000,,,
0.5957031250,9,-57.0000000000,,,
0.5976562500,9,-35.0000000000,,,
0.5996093750,9,-54.0000000000,,,
0.6015625000,9,-102.0000000000,,,
0.6035156250,9,-139.0000000000,,,
0.6054687500,9,-173.0000000000,,,
0.6074218750,9,-186.0000000000,,,
0.6093750000,9,-161.0000000000,,,
0.6113281250,9,-122.0000000000,,,
0.6132812500,9,-104.0000000000,,,
0.6152343750,9,-99.0000000000,,,
0.6171875000,9,-119.0000000000,,,
0.6191406250,9,-124.0000000000,,,
0.6210937500,9,-103.0000000000,,,
0.6230468750,9,-102.0000000000,,,
0.6250000000,10,-123.0000000000,,,
0.6269531250,10,-131.0000000000,,,
0.6289062500,10,-118.0000000000,,,
0.6308593750,10,-91.0000000000,,,
0.6328125000,10,-70.0000000000,,,
0.6347656250,10,-60.0000000000,,,
0.6367187500,10,-45.0000000000,,,
0.6386718750,10,-35.0000000000,,,
0.6406250000,10,-28.0000000000,,,
0.6425781250,10,-12.0000000000,,,
0.6445312500,10,-8.0000000000,,,
0.6464843750,10,-18.0000000000,,,
0.6484375000,10,-20.0000000000,,,
0.6503906250,10,-26.0000000000,,,
0.6523437500,10,-26.0000000000,,,
0.6542968750,10,-24.0000000000,,,
0.6562500000,10,-30.0000000000,,,
0.6582031250,10,-44.0000000000,33553,0.6582031250,0.0019531250
0.6601562500,10,-44.0000000000,33554,0.6601562500,0.0000000000
0.6621093750,10,-44.0000000000,,,
0.6640625000,10,-33.0000000000,,,
0.6660156250,10,-35.0000000000,,,
0.6679687500,10,-40.0000000000,,,
0.6699218750,10,-28.0000000000,,,
0.6718750000,10,-10.0000000000,,,
0.6738281250,10,-3.0000000000,,,
0.6757812500,10,-3.0000000000,,,
0.6777343750,10,1.0000000000,,,
0.6796875000,10,10.0000000000,,,
0.6816406250,10,8.0000000000,,,
0.6835937500,10,19.0000000000,,,
0.6855468750,10,33.0000000000,,,
0.6875000000,11,17.0000000000,,,
0.6894531250,11,4.0000000000,,,
0.6914062500,11,19.0000000000,,,
0.6933593750,11,52.0000000000,,,
0.6953125000,11,77.0000000000,,,
0.6972656250,11,72.0000000000,,,
0.6992187500,11,49.0000000000,,,
0.7011718750,11,43.0000000000,,,
0.7031250000,11,57.0000000000,,,
0.7050781250,11,54.0000000000,,,
0.7070312500,11,50.0000000000,,,
0.7089843750,11,53.0000000000,,,
0.7109375000,11,45.0000000000,,,
0.7128906250,11,34.0000000000,,,
0.7148437500,11,38.0000000000,,,
0.7167968750,11,49.0000000000,,,
0.7187500000,11,69.0000000000,,,
0.7207031250,11,91.0000000000,,,
0.7226562500,11,105.0000000000,,,
0.7246093750,11,99.0000000000,,,
0.7265625000,11,83.0000000000,,,
0.7285156250,11,64.0000000000,,,
0.7304687500,11,50.0000000000,,,
0.7324218750,11,59.0000000000,,,
0.7343750000,11,53.0000000000,,,
0.7363281250,11,23.0000000000,,,
0.7382812500,11,13.0000000000,,,
0.7402343750,11,6.0000000000,,,
0.7421875000,11,-13.0000000000,,,
0.7441406250,11,-35.0000000000,,,
0.7460937500,11,-21.0000000000,,,
0.7480468750,11,18.0000000000,,,
0.7500000000,12,50.0000000000,,,
0.7519531250,12,68.0000000000,,,
0.7539062500,12,70.0000000000,,,
0.7558593750,12,76.0000000000,,,
0.7578125000,12,96.0000000000,,,
0.7597656250,12,103.0000000000,,,
0.7617187500,12,72.0000000000,,,
0.7636718750,12,13.0000000000,,,
0.7656250000,12,-8.0000000000,,,
0.7675781250,12,3.0000000000,,,
0.7695312500,12,37.0000000000,,,
0.7714843750,12,69.0000000000,,,
0.7734375000,12,71.0000000000,,,
0.7753906250,12,61.0000000000,,,
0.7773437500,12,51.0000000000,,,
0.7792968750,12,49.0000000000,,,
0.7812500000,12,50.0000000000,,,
0.7832031250,12,54.0000000000,,,
0.7851562500,12,65.0000000000,,,
0.7871093750,12,70.0000000000,,,
0.7890625000,12,67.0000000000,,,
0.7910156250,12,58.0000000000,,,
0.7929687500,12,52.0000000000,,,
0.7949218750,12,58.0000000000,,,
0.7968750000,12,60.0000000000,,,
0.7988281250,12,66.0000000000,,,
0.8007812500,12,60.0000000000,,,
0.8027343750,12,29.0000000000,,,
0.8046875000,12,13.0000000000,,,
0.8066406250,12,32.0000000000,,,
0.8085937500,12,54.0000000000,,,
0.8105468750,12,56.0000000000,,,
0.8125000000,13,54.0000000000,,,
0.8144531250,13,57.0000000000,,,
0.8164062500,13,54.0000000000,,,
0.8183593750,13,56.0000000000,,,
0.8203125000,13,75.0000000000,,,
0.8222656250,13,91.0000000000,,,
0.8242187500,13,88.0000000000,,,
0.8261718750,13,82.0000000000,,,
0.8281250000,13,83.0000000000,,,
0.8300781250,13,75.0000000000,,,
0.8320312500,13,73.0000000000,,,
0.8339843750,13,67.0000000000,,,
0.8359375000,13,55.0000000000,,,
0.8378906250,13,56.0000000000,,,
0.8398437500,13,64.0000000000,,,
0.8417968750,13,56.0000000000,,,
0.8437500000,13,39.0000000000,,,
0.8457031250,13,35.0000000000,,,
0.8476562500,13,41.0000000000,33553,0.8476562500,0.0019531250
0.8496093750,13,41.0000000000,33554,0.8496093750,0.0000000000
0.8515625000,13,44.0000000000,,,
0.8535156250,13,49.0000000000,,,
0.8554687500,13,40.0000000000,,,
0.8574218750,13,42.0000000000,,,
0.8593750000,13,58.0000000000,,,
0.8613281250,13,72.0000000000,,,
0.8632812500,13,89.0000000000,,,
0.8652343750,13,97.0000000000,,,
0.8671875000,13,107.0000000000,,,
0.8691406250,13,139.0000000000,,,
0.8710937500,13,161.0000000000,,,
0.8730468750,13,151.0000000000,,,
0.8750000000,14,133.0000000000,,,
0.8769531250,14,104.0000000000,,,
0.8789062500,14,83.0000000000,,,
0.8808593750,14,82.0000000000,,,
0.8828125000,14,73.0000000000,,,
0.8847656250,14,38.0000000000,,,
0.8867187500,14,-4.0000000000,,,
0.8886718750,14,-14.0000000000,,,
0.8906250000,14,19.0000000000,,,
0.8925781250,14,68.0000000000,,,
0.8945312500,14,82.0000000000,,,
0.8964843750,14,81.0000000000,,,
0.8984375000,14,84.0000000000,,,
0.9003906250,14,101.0000000000,,,
0.9023437500,14,130.0000000000,,,
0.9042968750,14,154.0000000000,,,
0.9062500000,14,153.0000000000,,,
0.9082031250,14,139.0000000000,,,
0.9101562500,14,122.0000000000,,,
0.9121093750,14,106.0000000000,,,
0.9140625000,14,103.0000000000,,,
0.9160156250,14,92.0000000000,,,
0.9179687500,14,72.0000000000,,,
0.9199218750,14,60.0000000000,,,
0.9218750000,14,36.0000000000,,,
0.9238281250,14,24.0000000000,,,
0.9257812500,14,39.0000000000,,,
0.9277343750,14,58.0000000000,,,
0.9296875000,14,67.0000000000,,,
0.9316406250,14,59.0000000000,,,
0.9335937500,14,55.0000000000,,,
0.9355468750,14,84.0000000000,,,
0.9375000000,15,92.0000000000,,,
0.9394531250,15,61.0000000000,,,
0.9414062500,15,33.0000000000,,,
0.9433593750,15,17.0000000000,,,
0.9453125000,15,4.0000000000,,,
0.9472656250,15,8.0000000000,,,
0.9492187500,15,10.0000000000,,,
0.9511718750,15,-2.0000000000,,,
0.9531250000,15,-18.0000000000,,,
0.9550781250,15,-8.0000000000,,,
0.9570312500,15,12.0000000000,,,
0.9589843750,15,22.0000000000,,,
0.9609375000,15,23.0000000000,,,
0.9628906250,15,19.0000000000,,,
0.9648437500,15,29.0000000000,,,
0.9667968750,15,41.0000000000,,,
0.9687500000,15,54.0000000000,,,
0.9707031250,15,66.0000000000,,,
0.9726562500,15,70.0000000000,,,
0.9746093750,15,67.0000000000,33553,0.9746093750,0.0078125000
0.9765625000,15,67.0000000000,,,
0.9785156250,15,67.0000000000,,,
0.9804687500,15,67.0000000000,,,
0.9824218750,15,67.0000000000,33554,0.9824218750,0.0000000000
0.9843750000,15,48.0000000000,,,
0.9863281250,15,26.0000000000,,,
0.9882812500,15,32.0000000000,,,
0.9902343750,15,66.0000000000,,,
0.9921875000,15,102.0000000000,,,
0.9941406250,15,115.0000000000,,,
0.9960937500,15,114.0000000000,,,
0.9980468750,15,109.0000000000,,,
1.0000000000,16,99.0000000000,,,
1.0019531250,16,91.0000000000,,,
1.0039062500,16,102.0000000000,,,
1.0058593750,16,118.0000000000,,,
1.0078125000,16,123.0000000000,,,
1.0097656250,16,109.0000000000,,,
1.0117187500,16,77.0000000000,,,
1.0136718750,16,64.0000000000,,,
1.0156250000,16,67.0000000000,,,
1.0175781250,16,72.0000000000,,,
1.0195312500,16,80.0000000000,,,
1.0214843750,16,82.0000000000,,,
1.0234375000,16,85.0000000000,,,
1.0253906250,16,91.0000000000,,,
1.0273437500,16,76.0000000000,,,
1.0292968750,16,40.0000000000,,,
1.0312500000,16,21.0000000000,,,
1.0332031250,16,38.0000000000,,,
1.0351562500,16,61.0000000000,,,
1.0371093750,16,64.0000000000,,,
1.0390625000,16,57.0000000000,,,
1.0410156250,16,67.0000000000,,,
1.0429687500,16,77.0000000000,,,
1.0449218750,16,84.0000000000,33553,1.0449218750,0.0058593750
1.0468750000,16,84.0000000000,,,
1.0488281250,16,84.0000000000,,,
1.0507812500,16,84.0000000000,33554,1.0507812500,0.0000000000
1.0527343750,16,84.0000000000,,,
1.0546875000,16,88.0000000000,,,
1.0566406250,16,83.0000000000,,,
1.0585937500,16,55.0000000000,,,
1.0605468750,16,25.0000000000,,,
1.0625000000,17,34.0000000000,,,
1.0644531250,17,54.0000000000,,,
1.0664062500,17,48.0000000000,,,
1.0683593750,17,27.0000000000,,,
1.0703125000,17,24.0000000000,,,
1.0722656250,17,28.0000000000,,,
1.0742187500,17,41.0000000000,,,
1.0761718750,17,69.0000000000,,,
1.0781250000,17,80.0000000000,,,
1.0800781250,17,55.0000000000,,,
1.0820312500,17,43.0000000000,,,
1.0839843750,17,57.0000000000,,,
1.0859375000,17,70.0000000000,,,
1.0878906250,17,77.0000000000,,,
1.0898437500,17,87.0000000000,,,
1.0917968750,17,73.0000000000,,,
1.0937500000,17,28.0000000000,,,
1.0957031250,17,23.0000000000,,,
1.0976562500,17,42.0000000000,,,
1.0996093750,17,60.0000000000,,,
1.1015625000,17,66.0000000000,,,
1.1035156250,17,67.0000000000,,,
1.1054687500,17,72.0000000000,,,
1.1074218750,17,72.0000000000,,,
1.1093750000,17,75.0000000000,,,
1.1113281250,17,91.0000000000,,,
1.1132812500,17,116.0000000000,,,
1.1152343750,17,122.0000000000,,,
1.1171875000,17,118.0000000000,,,
1.1191406250,17,125.0000000000,,,
1.1210937500,17,147.0000000000,,,
1.1230468750,17,151.0000000000,,,
1.1250000000,18,119.0000000000,,,
1.1269531250,18,80.0000000000,,,
1.1289062500,18,69.0000000000,,,
1.1308593750,18,83.0000000000,,,
1.1328125000,18,70.0000000000,,,
1.1347656250,18,39.0000000000,,,
1.1367187500,18,21.0000000000,,,
1.1386718750,18,9.0000000000,,,
1.1406250000,18,-4.0000000000,,,
1.1425781250,18,-9.0000000000,,,
1.1445312500,18,-10.0000000000,,,
1.1464843750,18,-6.0000000000,,,
1.1484375000,18,-4.0000000000,,,
1.1503906250,18,18.0000000000,,,
1.1523437500,18,42.0000000000,,,
1.1542968750,18,50.0000000000,,,
1.1562500000,18,52.0000000000,,,
1.1582031250,18,48.0000000000,,,
1.1601562500,18,42.0000000000,,,
1.1621093750,18,58.0000000000,,,
1.1640625000,18,74.0000000000,,,
1.1660156250,18,64.0000000000,,,
1.1679687500,18,48.0000000000,,,
1.1699218750,18,44.0000000000,,,
1.1718750000,18,64.0000000000,,,
1.1738281250,18,81.0000000000,,,
1.1757812500,18,100.0000000000,33553,1.1757812500,0.0019531250
1.1777343750,18,100.0000000000,33554,1.1777343750,0.0000000000
1.1796875000,18,93.0000000000,,,
1.1816406250,18,83.0000000000,,,
1.1835937500,18,90.0000000000,,,
1.1855468750,18,84.0000000000,,,
1.1875000000,19,60.0000000000,,,
1.1894531250,19,48.0000000000,,,
1.1914062500,19,53.0000000000,,,
1.1933593750,19,70.0000000000,,,
1.1953125000,19,89.0000000000,,,
1.1972656250,19,104.0000000000,,,
1.1992187500,19,102.0000000000,,,
1.2011718750,19,87.0000000000,,,
1.2031250000,19,81.0000000000,,,
1.2050781250,19,85.0000000000,,,
1.2070312500,19,73.0000000000,,,
1.2089843750,19,43.0000000000,,,
1.2109375000,19,27.0000000000,,,
1.2128906250,19,19.0000000000,,,
1.2148437500,19,4.0000000000,,,
1.2167968750,19,-7.0000000000,,,
1.2187500000,19,-17.0000000000,,,
1.2207031250,19,-12.0000000000,,,
1.2226562500,19,-17.0000000000,,,
1.2246093750,19,-30.0000000000,,,
1.2265625000,19,-38.0000000000,,,
1.2285156250,19,-39.0000000000,,,
1.2304687500,19,-45.0000000000,,,
1.2324218750,19,-56.0000000000,,,
1.2343750000,19,-53.0000000000,,,
1.2363281250,19,-29.0000000000,,,
1.2382812500,19,-12.0000000000,,,
1.2402343750,19,-12.0000000000,,,
1.2421875000,19,-10.0000000000,,,
1.2441406250,19,-9.0000000000,,,
1.2460937500,19,-26.0000000000,,,
1.2480468750,19,-45.0000000000,,,
1.2500000000,20,-69.0000000000,,,
1.2519531250,20,-74.0000000000,,,
1.2539062500,20,-53.0000000000,,,
1.2558593750,20,-20.0000000000,,,
1.2578125000,20,-6.0000000000,,,
1.2597656250,20,-4.0000000000,,,
1.2617187500,20,-2.0000000000,,,
1.2636718750,20,10.0000000000,,,
1.2656250000,20,42.0000000000,,,
1.2675781250,20,70.0000000000,,,
1.2695312500,20,86.0000000000,,,
1.2714843750,20,76.0000000000,,,
1.2734375000,20,55.0000000000,,,
1.2753906250,20,55.0000000000,,,
1.2773437500,20,65.0000000000,,,
1.2792968750,20,80.0000000000,,,
1.2812500000,20,100.0000000000,,,
1.2832031250,20,104.0000000000,,,
1.2851562500,20,97.0000000000,,,
1.2871093750,20,97.0000000000,,,
1.2890625000,20,102.0000000000,,,
1.2910156250,20,115.0000000000,,,
1.2929687500,20,135.0000000000,,,
1.2949218750,20,155.0000000000,,,
1.2968750000,20,168.0000000000,,,
1.2988281250,20,166.0000000000,,,
1.3007812500,20,148.0000000000,,,
1.3027343750,20,133.0000000000,33553,1.3027343750,0.0019531250
1.3046875000,20,133.0000000000,33554,1.3046875000,0.0000000000
1.3066406250,20,132.0000000000,,,
1.3085937500,20,149.0000000000,,,
1.3105468750,20,150.0000000000,,,
1.3125000000,21,114.0000000000,,,
1.3144531250,21,84.0000000000,,,
1.3164062500,21,87.0000000000,,,
1.3183593750,21,84.0000000000,,,
1.3203125000,21,74.0000000000,,,
1.3222656250,21,72.0000000000,,,
1.3242187500,21,82.0000000000,,,
1.3261718750,21,89.0000000000,,,
1.3281250000,21,80.0000000000,,,
1.3300781250,21,52.0000000000,,,
1.3320312500,21,44.0000000000,,,
1.3339843750,21,50.0000000000,,,
1.3359375000,21,45.0000000000,,,
1.3378906250,21,28.0000000000,,,
1.3398437500,21,11.0000000000,,,
1.3417968750,21,18.0000000000,,,
1.3437500000,21,23.0000000000,,,
1.3457031250,21,4.0000000000,,,
1.3476562500,21,-9.0000000000,,,
1.3496093750,21,-2.0000000000,,,
1.3515625000,21,6.0000000000,,,
1.3535156250,21,-26.0000000000,,,
1.3554687500,21,-70.0000000000,,,
1.3574218750,21,-69.0000000000,,,
1.3593750000,21,-35.0000000000,,,
1.3613281250,21,-22.0000000000,,,
1.3632812500,21,-29.0000000000,,,
1.3652343750,21,-33.0000000000,,,
1.3671875000,21,-29.0000000000,,,
1.3691406250,21,-29.0000000000,,,
1.3710937500,21,-21.0000000000,,,
1.3730468750,21,-18.0000000000,,,
1.3750000000,22,-28.0000000000,,,
1.3769531250,22,-37.0000000000,,,
1.3789062500,22,-33.0000000000,,,
1.3808593750,22,-19.0000000000,,,
1.3828125000,22,5.0000000000,,,
1.3847656250,22,51.0000000000,,,
1.3867187500,22,81.0000000000,,,
1.3886718750,22,83.0000000000,,,
1.3906250000,22,101.0000000000,,,
1.3925781250,22,112.0000000000,,,
1.3945312500,22,120.0000000000,,,
1.3964843750,22,116.0000000000,,,
1.3984375000,22,104.0000000000,,,
1.4003906250,22,93.0000000000,,,
1.4023437500,22,76.0000000000,,,
1.4042968750,22,58.0000000000,,,
1.4062500000,22,56.0000000000,,,
1.4082031250,22,58.0000000000,,,
1.4101562500,22,32.0000000000,,,
1.4121093750,22,19.0000000000,,,
1.4140625000,22,29.0000000000,,,
1.4160156250,22,32.0000000000,,,
1.4179687500,22,28.0000000000,,,
1.4199218750,22,34.0000000000,,,
1.4218750000,22,42.0000000000,,,
1.4238281250,22,53.0000000000,,,
1.4257812500,22,49.0000000000,,,
1.4277343750,22,32.0000000000,,,
1.4296875000,22,13.0000000000,33553,1.4296875000,0.0019531250
1.4316406250,22,13.0000000000,33554,1.4316406250,0.0000000000
1.4335937500,22,4.0000000000,,,
1.4355468750,22,0.0000000000,,,
1.4375000000,23,-9.0000000000,,,
1.4394531250,23,-11.0000000000,,,
1.4414062500,23,0.0000000000,,,
1.4433593750,23,11.0000000000,,,
1.4453125000,23,21.0000000000,,,
1.4472656250,23,32.0000000000,,,
1.4492187500,23,38.0000000000,,,
1.4511718750,23,53.0000000000,,,
1.4531250000,23,59.0000000000,,,
1.4550781250,23,53.0000000000,,,
1.4570312500,23,65.0000000000,,,
1.4589843750,23,85.0000000000,,,
1.4609375000,23,96.0000000000,,,
1.4628906250,23,103.0000000000,,,
1.4648437500,23,100.0000000000,,,
1.4667968750,23,91.0000000000,,,
1.4687500000,23,88.0000000000,,,
1.4707031250,23,74.0000000000,,,
1.4726562500,23,69.0000000000,,,
1.4746093750,23,75.0000000000,,,
1.4765625000,23,57.0000000000,,,
1.4785156250,23,34.0000000000,,,
1.4804687500,23,9.0000000000,,,
1.4824218750,23,-2.0000000000,,,
1.4843750000,23,3.0000000000,,,
1.4863281250,23,19.0000000000,,,
1.4882812500,23,26.0000000000,,,
1.4902343750,23,13.0000000000,,,
1.4921875000,23,12.0000000000,,,
1.4941406250,23,29.0000000000,,,
1.4960937500,23,58.0000000000,,,
1.4980468750,23,70.0000000000,,,
1.5000000000,24,60.0000000000,,,
1.5019531250,24,68.0000000000,,,
1.5039062500,24,75.0000000000,,,
1.5058593750,24,75.0000000000,,,
1.5078125000,24,69.0000000000,,,
1.5097656250,24,65.0000000000,,,
1.5117187500,24,61.0000000000,,,
1.5136718750,24,53.0000000000,,,
1.5156250000,24,51.0000000000,,,
1.5175781250,24,49.0000000000,,,
1.5195312500,24,44.0000000000,,,
1.5214843750,24,56.0000000000,,,
1.5234375000,24,57.0000000000,,,
1.5253906250,24,29.0000000000,,,
1.5273437500,24,6.0000000000,,,
1.5292968750,24,11.0000000000,,,
1.5312500000,24,23.0000000000,,,
1.5332031250,24,26.0000000000,,,
1.5351562500,24,24.0000000000,,,
1.5371093750,24,22.0000000000,,,
1.5390625000,24,34.0000000000,,,
1.5410156250,24,51.0000000000,,,
1.5429687500,24,50.0000000000,,,
1.5449218750,24,32.0000000000,,,
1.5468750000,24,24.0000000000,,,
1.5488281250,24,25.0000000000,,,
1.5507812500,24,22.0000000000,,,
1.5527343750,24,16.0000000000,,,
1.5546875000,24,8.0000000000,,,
1.5566406250,24,17.0000000000,33553,1.5566406250,0.0019531250
1.5585937500,24,17.0000000000,33554,1.5585937500,0.0000000000
1.5605468750,24,35.0000000000,,,
1.5625000000,25,41.0000000000,,,
1.5644531250,25,40.0000000000,,,
1.5664062500,25,49.0000000000,,,
1.5683593750,25,54.0000000000,,,
1.5703125000,25,55.0000000000,,,
1.5722656250,25,50.0000000000,,,
1.5742187500,25,42.0000000000,,,
1.5761718750,25,38.0000000000,,,
1.5781250000,25,33.0000000000,,,
1.5800781250,25,21.0000000000,,,
1.5820312500,25,21.0000000000,,,
1.5839843750,25,27.0000000000,,,
1.5859375000,25,22.0000000000,,,
1.5878906250,25,9.0000000000,,,
1.5898437500,25,25.0000000000,,,
1.5917968750,25,50.0000000000,,,
1.5937500000,25,59.0000000000,,,
1.5957031250,25,50.0000000000,,,
1.5976562500,25,40.0000000000,,,
1.5996093750,25,54.0000000000,,,
1.6015625000,25,65.0000000000,,,
1.6035156250,25,53.0000000000,,,
1.6054687500,25,28.0000000000,,,
1.6074218750,25,6.0000000000,,,
1.6093750000,25,-2.0000000000,,,
1.6113281250,25,0.0000000000,,,
1.6132812500,25,2.0000000000,,,
1.6152343750,25,-13.0000000000,,,
1.6171875000,25,-43.0000000000,,,
1.6191406250,25,-59.0000000000,,,
1.6210937500,25,-60.0000000000,33553,1.6210937500,0.0097656250
1.6230468750,25,-60.0000000000,,,
1.6250000000,26,-60.0000000000,,,
1.6269531250,26,-60.0000000000,,,
1.6289062500,26,-60.0000000000,,,
1.6308593750,26,-60.0000000000,33554,1.6308593750,0.0000000000
1.6328125000,26,-66.0000000000,,,
1.6347656250,26,-69.0000000000,,,
1.6367187500,26,-55.0000000000,,,
1.6386718750,26,-36.0000000000,,,
1.6406250000,26,-27.0000000000,,,
1.6425781250,26,-11.0000000000,,,
1.6445312500,26,12.0000000000,,,
1.6464843750,26,33.0000000000,,,
1.6484375000,26,54.0000000000,,,
1.6503906250,26,66.0000000000,,,
1.6523437500,26,61.0000000000,,,
1.6542968750,26,52.0000000000,,,
1.6562500000,26,39.0000000000,,,
1.6582031250,26,27.0000000000,,,
1.6601562500,26,6.0000000000,,,
1.6621093750,26,-10.0000000000,,,
1.6640625000,26,-7.0000000000,,,
1.6660156250,26,8.0000000000,,,
1.6679687500,26,25.0000000000,,,
1.6699218750,26,27.0000000000,,,
1.6718750000,26,23.0000000000,,,
1.6738281250,26,40.0000000000,,,
1.6757812500,26,66.0000000000,,,
1.6777343750,26,50.0000000000,,,
1.6796875000,26,20.0000000000,,,
1.6816406250,26,25.0000000000,,,
1.6835937500,26,50.0000000000,,,
1.6855468750,26,41.0000000000,,,
1.6875000000,27,8.0000000000,,,
1.6894531250,27,0.0000000000,,,
1.6914062500,27,5.0000000000,,,
1.6933593750,27,10.0000000000,33553,1.6933593750,0.0039062500
1.6953125000,27,10.0000000000,,,
1.6972656250,27,10.0000000000,33554,1.6972656250,0.0000000000
1.6992187500,27,16.0000000000,,,
1.7011718750,27,12.0000000000,,,
1.7031250000,27,17.0000000000,,,
1.7050781250,27,22.0000000000,,,
1.7070312500,27,25.0000000000,,,
1.7089843750,27,24.0000000000,,,
1.7109375000,27,18.0000000000,,,
1.7128906250,27,24.0000000000,,,
1.7148437500,27,42.0000000000,,,
1.7167968750,27,59.0000000000,,,
1.7187500000,27,65.0000000000,,,
1.7207031250,27,60.0000000000,,,
1.7226562500,27,60.0000000000,,,
1.7246093750,27,53.0000000000,,,
1.7265625000,27,43.0000000000,,,
1.7285156250,27,38.0000000000,,,
1.7304687500,27,29.0000000000,,,
1.7324218750,27,24.0000000000,,,
1.7343750000,27,7.0000000000,,,
1.7363281250,27,-7.0000000000,,,
1.7382812500,27,5.0000000000,,,
1.7402343750,27,18.0000000000,,,
1.7421875000,27,19.0000000000,,,
1.7441406250,27,20.0000000000,,,
1.7460937500,27,21.0000000000,,,
1.7480468750,27,32.0000000000,,,
1.7500000000,28,44.0000000000,,,
1.7519531250,28,53.0000000000,,,
1.7539062500,28,52.0000000000,,,
1.7558593750,28,42.0000000000,,,
1.7578125000,28,43.0000000000,,,
1.7597656250,28,54.0000000000,33553,1.7597656250,0.0019531250
1.7617187500,28,54.0000000000,33554,1.7617187500,0.0000000000
1.7636718750,28,39.0000000000,,,
1.7656250000,28,20.0000000000,,,
1.7675781250,28,23.0000000000,,,
1.7695312500,28,45.0000000000,,,
1.7714843750,28,71.0000000000,,,
1.7734375000,28,80.0000000000,,,
1.7753906250,28,86.0000000000,,,
1.7773437500,28,88.0000000000,,,
1.7792968750,28,68.0000000000,,,
1.7812500000,28,59.0000000000,,,
1.7832031250,28,70.0000000000,,,
1.7851562500,28,77.0000000000,,,
1.7871093750,28,68.0000000000,,,
1.7890625000,28,56.0000000000,,,
1.7910156250,28,50.0000000000,,,
1.7929687500,28,41.0000000000,,,
1.7949218750,28,34.0000000000,,,
1.7968750000,28,50.0000000000,,,
1.7988281250,28,59.0000000000,,,
1.8007812500,28,57.0000000000,,,
1.8027343750,28,60.0000000000,,,
1.8046875000,28,92.0000000000,,,
1.8066406250,28,118.0000000000,,,
1.8085937500,28,135.0000000000,,,
1.8105468750,28,160.0000000000,,,
1.8125000000,29,163.0000000000,,,
1.8144531250,29,147.0000000000,,,
1.8164062500,29,149.0000000000,,,
1.8183593750,29,183.0000000000,,,
1.8203125000,29,201.0000000000,,,
1.8222656250,29,201.0000000000,,,
1.8242187500,29,214.0000000000,33553,1.8242187500,0.0058593750
1.8261718750,29,214.0000000000,,,
1.8281250000,29,214.0000000000,,,
1.8300781250,29,214.0000000000,33554,1.8300781250,0.0000000000
1.8320312500,29,248.0000000000,,,
1.8339843750,29,283.0000000000,,,
1.8359375000,29,315.0000000000,,,
1.8378906250,29,344.0000000000,,,
1.8398437500,29,354.0000000000,,,
1.8417968750,29,348.0000000000,,,
1.8437500000,29,345.0000000000,,,
1.8457031250,29,345.0000000000,,,
1.8476562500,29,359.0000000000,,,
1.8496093750,29,372.0000000000,,,
1.8515625000,29,379.0000000000,,,
1.8535156250,29,397.0000000000,,,
1.8554687500,29,408.0000000000,,,
1.8574218750,29,403.0000000000,,,
1.8593750000,29,389.0000000000,,,
1.8613281250,29,369.0000000000,,,
1.8632812500,29,342.0000000000,,,
1.8652343750,29,320.0000000000,,,
1.8671875000,29,296.0000000000,,,
1.8691406250,29,259.0000000000,,,
1.8710937500,29,204.0000000000,,,
1.8730468750,29,160.0000000000,,,
1.8750000000,30,148.0000000000,,,
1.8769531250,30,144.0000000000,,,
1.8789062500,30,116.0000000000,,,
1.8808593750,30,83.0000000000,,,
1.8828125000,30,58.0000000000,,,
1.8847656250,30,49.0000000000,,,
1.8867187500,30,42.0000000000,,,
1.8886718750,30,24.0000000000,,,
1.8906250000,30,8.0000000000,,,
1.8925781250,30,-5.0000000000,33553,1.8925781250,0.0039062500
1.8945312500,30,-5.0000000000,,,
1.8964843750,30,-5.0000000000,33554,1.8964843750,0.0000000000
1.8984375000,30,-20.0000000000,,,
1.9003906250,30,-39.0000000000,,,
1.9023437500,30,-70.0000000000,,,
1.9042968750,30,-109.0000000000,,,
1.9062500000,30,-123.0000000000,,,
1.9082031250,30,-125.0000000000,,,
1.9101562500,30,-133.0000000000,,,
1.9121093750,30,-136.0000000000,,,
1.9140625000,30,-142.0000000000,,,
1.9160156250,30,-167.0000000000,,,
1.9179687500,30,-197.0000000000,,,
1.9199218750,30,-219.0000000000,,,
1.9218750000,30,-234.0000000000,,,
1.9238281250,30,-242.0000000000,,,
1.9257812500,30,-243.0000000000,,,
1.9277343750,30,-257.0000000000,,,
1.9296875000,30,-305.0000000000,,,
1.9316406250,30,-339.0000000000,,,
1.9335937500,30,-333.0000000000,,,
1.9355468750,30,-314.0000000000,,,
1.9375000000,31,-312.0000000000,,,
1.9394531250,31,-309.0000000000,,,
1.9414062500,31,-294.0000000000,,,
1.9433593750,31,-274.0000000000,,,
1.9453125000,31,-269.0000000000,,,
1.9472656250,31,-278.0000000000,,,
1.9492187500,31,-281.0000000000,,,
1.9511718750,31,-289.0000000000,,,
1.9531250000,31,-289.0000000000,,,
1.9550781250,31,-299.0000000000,,,
1.9570312500,31,-305.0000000000,,,
1.9589843750,31,-299.0000000000,33553,1.9589843750,0.0058593750
1.9609375000,31,-299.0000000000,,,
1.9628906250,31,-299.0000000000,,,
1.9648437500,31,-299.0000000000,33554,1.9648437500,0.0000000000
1.9667968750,31,-302.0000000000,,,
1.9687500000,31,-300.0000000000,,,
1.9707031250,31,-298.0000000000,,,
1.9726562500,31,-289.0000000000,,,
1.9746093750,31,-267.0000000000,,,
1.9765625000,31,-249.0000000000,,,
1.9785156250,31,-232.0000000000,,,
1.9804687500,31,-205.0000000000,,,
1.9824218750,31,-174.0000000000,,,
1.9843750000,31,-148.0000000000,,,
1.9863281250,31,-148.0000000000,,,
1.9882812500,31,-169.0000000000,,,
1.9902343750,31,-174.0000000000,,,
1.9921875000,31,-156.0000000000,,,
1.9941406250,31,-141.0000000000,,,
1.9960937500,31,-142.0000000000,,,
1.9980468750,31,-145.0000000000,,,
2.0000000000,32,-125.0000000000,,,
2.0019531250,32,-91.0000000000,,,
2.0039062500,32,-55.0000000000,,,
2.0058593750,32,-37.0000000000,,,
2.0078125000,32,-29.0000000000,,,
2.0097656250,32,-35.0000000000,,,
2.0117187500,32,-41.0000000000,,,
2.0136718750,32,-38.0000000000,,,
2.0156250000,32,-26.0000000000,,,
2.0175781250,32,-2.0000000000,,,
2.0195312500,32,19.0000000000,,,
2.0214843750,32,28.0000000000,,,
2.0234375000,32,36.0000000000,,,
2.0253906250,32,33.0000000000,,,
2.0273437500,32,28.0000000000,,,
2.0292968750,32,39.0000000000,,,
2.0312500000,32,59.0000000000,,,
2.0332031250,32,77.0000000000,,,
2.0351562500,32,71.0000000000,,,
2.0371093750,32,53.0000000000,,,
2.0390625000,32,43.0000000000,,,
2.0410156250,32,40.0000000000,,,
2.0429687500,32,51.0000000000,,,
2.0449218750,32,68.0000000000,,,
2.0468750000,32,64.0000000000,,,
2.0488281250,32,44.0000000000,,,
2.0507812500,32,40.0000000000,,,
2.0527343750,32,55.0000000000,,,
2.0546875000,32,72.0000000000,,,
2.0566406250,32,87.0000000000,,,
2.0585937500,32,86.0000000000,,,
2.0605468750,32,69.0000000000,,,
2.0625000000,33,59.0000000000,,,
2.0644531250,33,77.0000000000,,,
2.0664062500,33,100.0000000000,,,
2.0683593750,33,99.0000000000,,,
2.0703125000,33,87.0000000000,,,
2.0722656250,33,66.0000000000,,,
2.0742187500,33,56.0000000000,,,
2.0761718750,33,69.0000000000,,,
2.0781250000,33,75.0000000000,,,
2.0800781250,33,76.0000000000,,,
2.0820312500,33,73.0000000000,,,
2.0839843750,33,74.0000000000,,,
2.0859375000,33,72.0000000000,,,
2.0878906250,33,70.0000000000,,,
2.0898437500,33,88.0000000000,,,
2.0917968750,33,112.0000000000,,,
2.0937500000,33,118.0000000000,,,
2.0957031250,33,116.0000000000,,,
2.0976562500,33,113.0000000000,,,
2.0996093750,33,115.0000000000,,,
2.1015625000,33,105.0000000000,,,
2.1035156250,33,90.0000000000,,,
2.1054687500,33,101.0000000000,,,
2.1074218750,33,113.0000000000,,,
2.1093750000,33,109.0000000000,,,
2.1113281250,33,104.0000000000,,,
2.1132812500,33,118.0000000000,,,
2.1152343750,33,151.0000000000,,,
2.1171875000,33,156.0000000000,,,
2.1191406250,33,146.0000000000,,,
2.1210937500,33,135.0000000000,,,
2.1230468750,33,103.0000000000,,,
2.1250000000,34,70.0000000000,,,
2.1269531250,34,91.0000000000,,,
2.1289062500,34,134.0000000000,,,
2.1308593750,34,157.0000000000,,,
2.1328125000,34,170.0000000000,,,
2.1347656250,34,184.0000000000,,,
2.1367187500,34,184.0000000000,,,
2.1386718750,34,161.0000000000,,,
2.1406250000,34,144.0000000000,,,
2.1425781250,34,153.0000000000,,,
2.1445312500,34,160.0000000000,,,
2.1464843750,34,135.0000000000,,,
2.1484375000,34,96.0000000000,,,
2.1503906250,34,80.0000000000,,,
2.1523437500,34,85.0000000000,,,
2.1542968750,34,103.0000000000,,,
2.1562500000,34,109.0000000000,,,
2.1582031250,34,97.0000000000,,,
2.1601562500,34,91.0000000000,,,
2.1621093750,34,106.0000000000,,,
2.1640625000,34,115.0000000000,,,
2.1660156250,34,90.0000000000,,,
2.1679687500,34,73.0000000000,,,
2.1699218750,34,75.0000000000,,,
2.1718750000,34,76.0000000000,,,
2.1738281250,34,80.0000000000,,,
2.1757812500,34,91.0000000000,,,
2.1777343750,34,101.0000000000,,,
2.1796875000,34,85.0000000000,,,
2.1816406250,34,55.0000000000,,,
2.1835937500,34,39.0000000000,,,
2.1855468750,34,45.0000000000,,,
2.1875000000,35,60.0000000000,,,
2.1894531250,35,56.0000000000,,,
2.1914062500,35,38.0000000000,,,
2.1933593750,35,32.0000000000,,,
2.1953125000,35,42.0000000000,,,
2.1972656250,35,59.0000000000,,,
2.1992187500,35,58.0000000000,,,
2.2011718750,35,42.0000000000,,,
2.2031250000,35,13.0000000000,,,
2.2050781250,35,17.0000000000,,,
2.2070312500,35,49.0000000000,,,
2.2089843750,35,73.0000000000,,,
2.2109375000,35,75.0000000000,,,
2.2128906250,35,76.0000000000,,,
2.2148437500,35,89.0000000000,33553,2.2148437500,0.0058593750
2.2167968750,35,89.0000000000,,,
2.2187500000,35,89.0000000000,,,
2.2207031250,35,89.0000000000,33554,2.2207031250,0.0000000000
2.2226562500,35,96.0000000000,,,
2.2246093750,35,96.0000000000,,,
2.2265625000,35,105.0000000000,,,
2.2285156250,35,114.0000000000,,,
2.2304687500,35,121.0000000000,,,
2.2324218750,35,121.0000000000,,,
2.2343750000,35,112.0000000000,,,
2.2363281250,35,112.0000000000,,,
2.2382812500,35,114.0000000000,,,
2.2402343750,35,108.0000000000,,,
2.2421875000,35,103.0000000000,,,
2.2441406250,35,90.0000000000,,,
2.2460937500,35,69.0000000000,,,
2.2480468750,35,61.0000000000,,,
2.2500000000,36,71.0000000000,,,
2.2519531250,36,90.0000000000,,,
2.2539062500,36,117.0000000000,,,
2.2558593750,36,128.0000000000,,,
2.2578125000,36,102.0000000000,,,
2.2597656250,36,76.0000000000,,,
2.2617187500,36,68.0000000000,,,
2.2636718750,36,54.0000000000,,,
2.2656250000,36,53.0000000000,,,
2.2675781250,36,72.0000000000,,,
2.2695312500,36,84.0000000000,,,
2.2714843750,36,84.0000000000,,,
2.2734375000,36,84.0000000000,,,
2.2753906250,36,89.0000000000,,,
2.2773437500,36,115.0000000000,,,
2.2792968750,36,128.0000000000,,,
2.2812500000,36,101.0000000000,,,
2.2832031250,36,87.0000000000,33553,2.2832031250,0.0058593750
2.2851562500,36,87.0000000000,,,
2.2871093750,36,87.0000000000,,,
2.2890625000,36,87.0000000000,33554,2.2890625000,0.0000000000
2.2910156250,36,96.0000000000,,,
2.2929687500,36,102.0000000000,,,
2.2949218750,36,123.0000000000,,,
2.2968750000,36,137.0000000000,,,
2.2988281250,36,135.0000000000,,,
2.3007812500,36,123.0000000000,,,
2.3027343750,36,101.0000000000,,,
2.3046875000,36,64.0000000000,,,
2.3066406250,36,43.0000000000,,,
2.3085937500,36,54.0000000000,,,
2.3105468750,36,69.0000000000,,,
2.3125000000,37,70.0000000000,,,
2.3144531250,37,57.0000000000,,,
2.3164062500,37,51.0000000000,,,
2.3183593750,37,60.0000000000,,,
2.3203125000,37,71.0000000000,,,
2.3222656250,37,76.0000000000,,,
2.3242187500,37,80.0000000000,,,
2.3261718750,37,68.0000000000,,,
2.3281250000,37,57.0000000000,,,
2.3300781250,37,58.0000000000,,,
2.3320312500,37,69.0000000000,,,
2.3339843750,37,87.0000000000,,,
2.3359375000,37,108.0000000000,,,
2.3378906250,37,118.0000000000,,,
2.3398437500,37,117.0000000000,,,
2.3417968750,37,112.0000000000,,,
2.3437500000,37,115.0000000000,,,
2.3457031250,37,116.0000000000,,,
2.3476562500,37,115.0000000000,,,
2.3496093750,37,100.0000000000,,,
2.3515625000,37,92.0000000000,,,
2.3535156250,37,80.0000000000,,,
2.3554687500,37,57.0000000000,,,
2.3574218750,37,42.0000000000,,,
2.3593750000,37,55.0000000000,,,
2.3613281250,37,52.0000000000,,,
2.3632812500,37,35.0000000000,,,
2.3652343750,37,40.0000000000,,,
2.3671875000,37,45.0000000000,,,
2.3691406250,37,52.0000000000,,,
2.3710937500,37,38.0000000000,,,
2.3730468750,37,18.0000000000,,,
2.3750000000,38,11.0000000000,,,
2.3769531250,38,13.0000000000,,,
2.3789062500,38,37.0000000000,,,
2.3808593750,38,56.0000000000,,,
2.3828125000,38,36.0000000000,,,
2.3847656250,38,6.0000000000,,,
2.3867187500,38,-23.0000000000,,,
2.3886718750,38,-33.0000000000,,,
2.3906250000,38,-24.0000000000,,,
2.3925781250,38,-25.0000000000,,,
2.3945312500,38,-23.0000000000,,,
2.3964843750,38,-11.0000000000,,,
2.3984375000,38,34.0000000000,,,
2.4003906250,38,86.0000000000,,,
2.4023437500,38,73.0000000000,,,
2.4042968750,38,72.0000000000,,,
2.4062500000,38,92.0000000000,,,
2.4082031250,38,100.0000000000,,,
2.4101562500,38,90.0000000000,,,
2.4121093750,38,75.0000000000,,,
2.4140625000,38,58.0000000000,,,
2.4160156250,38,35.0000000000,,,
2.4179687500,38,41.0000000000,,,
2.4199218750,38,72.0000000000,,,
2.4218750000,38,51.0000000000,,,
2.4238281250,38,19.0000000000,,,
2.4257812500,38,16.0000000000,,,
2.4277343750,38,36.0000000000,,,
2.4296875000,38,72.0000000000,,,
2.4316406250,38,123.0000000000,,,
2.4335937500,38,163.0000000000,,,
2.4355468750,38,132.0000000000,,,
2.4375000000,39,97.0000000000,,,
2.4394531250,39,97.0000000000,,,
2.4414062500,39,155.0000000000,,,
2.4433593750,39,214.0000000000,,,
2.4453125000,39,210.0000000000,,,
2.4472656250,39,201.0000000000,,,
2.4492187500,39,193.0000000000,,,
2.4511718750,39,196.0000000000,,,
2.4531250000,39,233.0000000000,,,
2.4550781250,39,214.0000000000,,,
2.4570312500,39,140.0000000000,,,
2.4589843750,39,103.0000000000,,,
2.4609375000,39,96.0000000000,,,
2.4628906250,39,97.0000000000,,,
2.4648437500,39,86.0000000000,,,
2.4667968750,39,112.0000000000,,,
2.4687500000,39,192.0000000000,,,
2.4707031250,39,258.0000000000,,,
2.4726562500,39,266.0000000000,,,
2.4746093750,39,243.0000000000,,,
2.4765625000,39,202.0000000000,33553,2.4765625000,0.0019531250
2.4785156250,39,202.0000000000,33554,2.4785156250,0.0000000000
2.4804687500,39,163.0000000000,,,
2.4824218750,39,156.0000000000,,,
2.4843750000,39,168.0000000000,,,
2.4863281250,39,160.0000000000,,,
2.4882812500,39,146.0000000000,,,
2.4902343750,39,153.0000000000,,,
2.4921875000,39,182.0000000000,,,
2.4941406250,39,208.0000000000,,,
2.4960937500,39,196.0000000000,,,
2.4980468750,39,199.0000000000,,,
2.5000000000,40,227.0000000000,,,
2.5019531250,40,164.0000000000,,,
2.5039062500,40,64.0000000000,,,
2.5058593750,40,21.0000000000,,,
2.5078125000,40,13.0000000000,,,
2.5097656250,40,52.0000000000,,,
2.5117187500,40,107.0000000000,,,
2.5136718750,40,123.0000000000,,,
2.5156250000,40,113.0000000000,,,
2.5175781250,40,104.0000000000,,,
2.5195312500,40,115.0000000000,,,
2.5214843750,40,129.0000000000,,,
2.5234375000,40,134.0000000000,,,
2.5253906250,40,119.0000000000,,,
2.5273437500,40,83.0000000000,,,
2.5292968750,40,44.0000000000,,,
2.5312500000,40,21.0000000000,,,
2.5332031250,40,-5.0000000000,,,
2.5351562500,40,-38.0000000000,,,
2.5371093750,40,-39.0000000000,,,
2.5390625000,40,-6.0000000000,,,
2.5410156250,40,2.0000000000,33553,2.5410156250,0.0019531250
2.5429687500,40,2.0000000000,33554,2.5429687500,0.0000000000
2.5449218750,40,-14.0000000000,,,
2.5468750000,40,-22.0000000000,,,
2.5488281250,40,-19.0000000000,,,
2.5507812500,40,-1.0000000000,,,
2.5527343750,40,-58.0000000000,,,
2.5546875000,40,-150.0000000000,,,
2.5566406250,40,-145.0000000000,,,
2.5585937500,40,-83.0000000000,,,
2.5605468750,40,-53.0000000000,,,
2.5625000000,41,-40.0000000000,,,
2.5644531250,41,-18.0000000000,,,
2.5664062500,41,-22.0000000000,,,
2.5683593750,41,-49.0000000000,,,
2.5703125000,41,-44.0000000000,,,
2.5722656250,41,-39.0000000000,,,
2.5742187500,41,-57.0000000000,,,
2.5761718750,41,-102.0000000000,,,
2.5781250000,41,-122.0000000000,,,
2.5800781250,41,-113.0000000000,,,
2.5820312500,41,-108.0000000000,,,
2.5839843750,41,-108.0000000000,,,
2.5859375000,41,-124.0000000000,,,
2.5878906250,41,-138.0000000000,,,
2.5898437500,41,-125.0000000000,,,
2.5917968750,41,-129.0000000000,,,
2.5937500000,41,-132.0000000000,,,
2.5957031250,41,-105.0000000000,,,
2.5976562500,41,-116.0000000000,,,
2.5996093750,41,-121.0000000000,,,
2.6015625000,41,-92.0000000000,,,
2.6035156250,41,-70.0000000000,,,
2.6054687500,41,-67.0000000000,,,
2.6074218750,41,-58.0000000000,,,
2.6093750000,41,-73.0000000000,,,
2.6113281250,41,-92.0000000000,,,
2.6132812500,41,-71.0000000000,,,
2.6152343750,41,-49.0000000000,,,
2.6171875000,41,-65.0000000000,,,
2.6191406250,41,-60.0000000000,,,
2.6210937500,41,-29.0000000000,,,
2.6230468750,41,-39.0000000000,,,
2.6250000000,42,-53.0000000000,,,
2.6269531250,42,-41.0000000000,,,
2.6289062500,42,-42.0000000000,,,
2.6308593750,42,-66.0000000000,,,
2.6328125000,42,-92.0000000000,,,
2.6347656250,42,-126.0000000000,,,
2.6367187500,42,-115.0000000000,,,
2.6386718750,42,-41.0000000000,,,
2.6406250000,42,8.0000000000,,,
2.6425781250,42,13.0000000000,,,
2.6445312500,42,12.0000000000,,,
2.6464843750,42,25.0000000000,,,
2.6484375000,42,26.0000000000,,,
2.6503906250,42,9.0000000000,,,
2.6523437500,42,12.0000000000,,,
2.6542968750,42,26.0000000000,,,
2.6562500000,42,33.0000000000,,,
2.6582031250,42,41.0000000000,,,
2.6601562500,42,74.0000000000,,,
2.6621093750,42,59.0000000000,,,
2.6640625000,42,23.0000000000,,,
2.6660156250,42,57.0000000000,,,
2.6679687500,42,99.0000000000,,,
2.6699218750,42,112.0000000000,,,
2.6718750000,42,58.0000000000,,,
2.6738281250,42,-17.0000000000,,,
2.6757812500,42,-37.0000000000,,,
2.6777343750,42,8.0000000000,,,
2.6796875000,42,34.0000000000,,,
2.6816406250,42,8.0000000000,,,
2.6835937500,42,-28.0000000000,,,
2.6855468750,42,-54.0000000000,,,
2.6875000000,43,-35.0000000000,,,
2.6894531250,43,-12.0000000000,,,
2.6914062500,43,6.0000000000,,,
2.6933593750,43,0.0000000000,,,
2.6953125000,43,-29.0000000000,,,
2.6972656250,43,-50.0000000000,,,
2.6992187500,43,-49.0000000000,,,
2.7011718750,43,-3.0000000000,,,
2.7031250000,43,29.0000000000,,,
2.7050781250,43,38.0000000000,,,
2.7070312500,43,25.0000000000,,,
2.7089843750,43,12.0000000000,,,
2.7109375000,43,13.0000000000,,,
2.7128906250,43,-4.0000000000,,,
2.7148437500,43,-21.0000000000,,,
2.7167968750,43,-18.0000000000,,,
2.7187500000,43,-27.0000000000,,,
2.7207031250,43,-27.0000000000,,,
2.7226562500,43,-18.0000000000,,,
2.7246093750,43,-24.0000000000,,,
2.7265625000,43,-8.0000000000,,,
2.7285156250,43,39.0000000000,,,
2.7304687500,43,76.0000000000,,,
2.7324218750,43,49.0000000000,,,
2.7343750000,43,19.0000000000,,,
2.7363281250,43,5.0000000000,,,
2.7382812500,43,3.0000000000,,,
2.7402343750,43,-6.0000000000,,,
2.7421875000,43,2.0000000000,,,
2.7441406250,43,28.0000000000,,,
2.7460937500,43,43.0000000000,,,
2.7480468750,43,50.0000000000,,,
2.7500000000,44,44.0000000000,,,
2.7519531250,44,48.0000000000,,,
2.7539062500,44,50.0000000000,,,
2.7558593750,44,41.0000000000,,,
2.7578125000,44,38.0000000000,,,
2.7597656250,44,52.0000000000,,,
2.7617187500,44,73.0000000000,,,
2.7636718750,44,91.0000000000,,,
2.7656250000,44,89.0000000000,,,
2.7675781250,44,67.0000000000,,,
2.7695312500,44,55.0000000000,,,
2.7714843750,44,53.0000000000,,,
2.7734375000,44,39.0000000000,,,
2.7753906250,44,36.0000000000,,,
2.7773437500,44,32.0000000000,,,
2.7792968750,44,45.0000000000,,,
2.7812500000,44,60.0000000000,,,
2.7832031250,44,52.0000000000,,,
2.7851562500,44,37.0000000000,,,
2.7871093750,44,52.0000000000,,,
2.7890625000,44,80.0000000000,,,
2.7910156250,44,82.0000000000,,,
2.7929687500,44,69.0000000000,,,
2.7949218750,44,54.0000000000,,,
2.7968750000,44,27.0000000000,,,
2.7988281250,44,9.0000000000,,,
2.8007812500,44,24.0000000000,,,
2.8027343750,44,40.0000000000,,,
2.8046875000,44,44.0000000000,,,
2.8066406250,44,52.0000000000,,,
2.8085937500,44,44.0000000000,,,
2.8105468750,44,38.0000000000,,,
2.8125000000,45,51.0000000000,,,
2.8144531250,45,50.0000000000,,,
2.8164062500,45,38.0000000000,,,
2.8183593750,45,36.0000000000,,,
2.8203125000,45,52.0000000000,,,
2.8222656250,45,67.0000000000,,,
2.8242187500,45,60.0000000000,,,
2.8261718750,45,48.0000000000,,,
2.8281250000,45,27.0000000000,,,
2.8300781250,45,24.0000000000,,,
2.8320312500,45,25.0000000000,,,
2.8339843750,45,10.0000000000,,,
2.8359375000,45,4.0000000000,,,
2.8378906250,45,25.0000000000,,,
2.8398437500,45,38.0000000000,,,
2.8417968750,45,32.0000000000,,,
2.8437500000,45,24.0000000000,,,
2.8457031250,45,23.0000000000,,,
2.8476562500,45,40.0000000000,,,
2.8496093750,45,54.0000000000,,,
2.8515625000,45,52.0000000000,,,
2.8535156250,45,38.0000000000,,,
2.8554687500,45,26.0000000000,33552,2.8554687500,0.0000000000
2.8574218750,45,37.0000000000,,,
2.8593750000,45,41.0000000000,,,
2.8613281250,45,42.0000000000,,,
2.8632812500,45,37.0000000000,,,
2.8652343750,45,37.0000000000,,,
2.8671875000,45,52.0000000000,,,
2.8691406250,45,53.0000000000,,,
2.8710937500,45,50.0000000000,,,
2.8730468750,45,44.0000000000,,,
2.8750000000,46,20.0000000000,,,
2.8769531250,46,6.0000000000,,,
2.8789062500,46,21.0000000000,,,
2.8808593750,46,33.0000000000,,,
2.8828125000,46,35.0000000000,,,
2.8847656250,46,24.0000000000,,,
2.8867187500,46,17.0000000000,,,
2.8886718750,46,25.0000000000,,,
2.8906250000,46,41.0000000000,,,
2.8925781250,46,48.0000000000,,,
2.8945312500,46,41.0000000000,,,
2.8964843750,46,23.0000000000,,,
2.8984375000,46,16.0000000000,,,
2.9003906250,46,23.0000000000,,,
2.9023437500,46,43.0000000000,,,
2.9042968750,46,64.0000000000,,,
2.9062500000,46,75.0000000000,,,
2.9082031250,46,80.0000000000,,,
2.9101562500,46,81.0000000000,,,
2.9121093750,46,68.0000000000,,,
2.9140625000,46,42.0000000000,,,
2.9160156250,46,48.0000000000,,,
2.9179687500,46,65.0000000000,,,
2.9199218750,46,58.0000000000,,,
2.9218750000,46,19.0000000000,,,
2.9238281250,46,-39.0000000000,,,
2.9257812500,46,-55.0000000000,,,
2.9277343750,46,-1.0000000000,,,
2.9296875000,46,51.0000000000,,,
2.9316406250,46,54.0000000000,,,
2.9335937500,46,37.0000000000,,,
2.9355468750,46,35.0000000000,,,
2.9375000000,47,55.0000000000,,,
2.9394531250,47,76.0000000000,,,
2.9414062500,47,96.0000000000,,,
2.9433593750,47,96.0000000000,,,
2.9453125000,47,81.0000000000,,,
2.9472656250,47,56.0000000000,,,
2.9492187500,47,45.0000000000,,,
2.9511718750,47,50.0000000000,,,
2.9531250000,47,45.0000000000,,,
2.9550781250,47,42.0000000000,,,
2.9570312500,47,51.0000000000,,,
2.9589843750,47,44.0000000000,,,
2.9609375000,47,33.0000000000,,,
2.9628906250,47,27.0000000000,,,
2.9648437500,47,40.0000000000,,,
2.9667968750,47,44.0000000000,,,
2.9687500000,47,12.0000000000,,,
2.9707031250,47,-29.0000000000,,,
2.9726562500,47,-25.0000000000,,,
2.9746093750,47,25.0000000000,,,
2.9765625000,47,56.0000000000,,,
2.9785156250,47,57.0000000000,33552,2.9785156250,0.0000000000
2.9804687500,47,58.0000000000,,,
2.9824218750,47,53.0000000000,,,
2.9843750000,47,59.0000000000,,,
2.9863281250,47,80.0000000000,,,
2.9882812500,47,84.0000000000,,,
2.9902343750,47,85.0000000000,,,
2.9921875000,47,84.0000000000,,,
2.9941406250,47,70.0000000000,,,
2.9960937500,47,64.0000000000,,,
2.9980468750,47,58.0000000000,,,
3.0000000000,48,43.0000000000,,,
3.0019531250,48,39.0000000000,,,
3.0039062500,48,35.0000000000,,,
3.0058593750,48,24.0000000000,,,
3.0078125000,48,11.0000000000,,,
3.0097656250,48,2.0000000000,,,
3.0117187500,48,-4.0000000000,,,
3.0136718750,48,5.0000000000,,,
3.0156250000,48,29.0000000000,,,
3.0175781250,48,34.0000000000,,,
3.0195312500,48,0.0000000000,,,
3.0214843750,48,-7.0000000000,,,
3.0234375000,48,29.0000000000,,,
3.0253906250,48,61.0000000000,,,
3.0273437500,48,60.0000000000,,,
3.0292968750,48,52.0000000000,,,
3.0312500000,48,42.0000000000,,,
3.0332031250,48,41.0000000000,,,
3.0351562500,48,39.0000000000,,,
3.0371093750,48,38.0000000000,33552,3.0371093750,0.0000000000
3.0390625000,48,48.0000000000,,,
3.0410156250,48,64.0000000000,,,
3.0429687500,48,68.0000000000,,,
3.0449218750,48,70.0000000000,,,
3.0468750000,48,76.0000000000,,,
3.0488281250,48,52.0000000000,,,
3.0507812500,48,24.0000000000,,,
3.0527343750,48,51.0000000000,,,
3.0546875000,48,84.0000000000,,,
3.0566406250,48,103.0000000000,,,
3.0585937500,48,114.0000000000,,,
3.0605468750,48,134.0000000000,,,
3.0625000000,49,164.0000000000,,,
3.0644531250,49,171.0000000000,,,
3.0664062500,49,144.0000000000,,,
3.0683593750,49,109.0000000000,,,
3.0703125000,49,122.0000000000,,,
3.0722656250,49,138.0000000000,,,
3.0742187500,49,118.0000000000,,,
3.0761718750,49,96.0000000000,,,
3.0781250000,49,85.0000000000,,,
3.0800781250,49,89.0000000000,,,
3.0820312500,49,105.0000000000,,,
3.0839843750,49,114.0000000000,,,
3.0859375000,49,104.0000000000,,,
3.0878906250,49,88.0000000000,,,
3.0898437500,49,70.0000000000,,,
3.0917968750,49,64.0000000000,,,
3.0937500000,49,50.0000000000,,,
3.0957031250,49,48.0000000000,33552,3.0957031250,0.0000000000
3.0976562500,49,52.0000000000,,,
3.0996093750,49,41.0000000000,,,
3.1015625000,49,26.0000000000,,,
3.1035156250,49,28.0000000000,,,
3.1054687500,49,42.0000000000,,,
3.1074218750,49,45.0000000000,,,
3.1093750000,49,40.0000000000,,,
3.1113281250,49,45.0000000000,,,
3.1132812500,49,50.0000000000,,,
3.1152343750,49,48.0000000000,,,
3.1171875000,49,27.0000000000,,,
3.1191406250,49,-22.0000000000,,,
3.1210937500,49,-75.0000000000,,,
3.1230468750,49,-108.0000000000,,,
3.1250000000,50,-117.0000000000,,,
3.1269531250,50,-103.0000000000,,,
3.1289062500,50,-67.0000000000,,,
3.1308593750,50,-28.0000000000,,,
3.1328125000,50,-11.0000000000,,,
3.1347656250,50,0.0000000000,,,
3.1367187500,50,4.0000000000,,,
3.1386718750,50,6.0000000000,,,
3.1406250000,50,21.0000000000,,,
3.1425781250,50,42.0000000000,,,
3.1445312500,50,48.0000000000,,,
3.1464843750,50,43.0000000000,,,
3.1484375000,50,37.0000000000,,,
3.1503906250,50,33.0000000000,,,
3.1523437500,50,26.0000000000,,,
3.1542968750,50,34.0000000000,,,
3.1562500000,50,51.0000000000,,,
3.1582031250,50,58.0000000000,,,
3.1601562500,50,59.0000000000,,,
3.1621093750,50,38.0000000000,,,
3.1640625000,50,-3.0000000000,,,
3.1660156250,50,-36.0000000000,,,
3.1679687500,50,-36.0000000000,,,
3.1699218750,50,-5.0000000000,,,
3.1718750000,50,11.0000000000,,,
3.1738281250,50,21.0000000000,,,
3.1757812500,50,33.0000000000,,,
3.1777343750,50,29.0000000000,,,
3.1796875000,50,26.0000000000,,,
3.1816406250,50,41.0000000000,,,
3.1835937500,50,53.0000000000,,,
3.1855468750,50,54.0000000000,,,
3.1875000000,51,50.0000000000,,,
3.1894531250,51,54.0000000000,,,
3.1914062500,51,61.0000000000,,,
3.1933593750,51,55.0000000000,,,
3.1953125000,51,40.0000000000,,,
3.1972656250,51,26.0000000000,,,
3.1992187500,51,32.0000000000,,,
3.2011718750,51,39.0000000000,,,
3.2031250000,51,38.0000000000,,,
3.2050781250,51,27.0000000000,,,
3.2070312500,51,12.0000000000,,,
3.2089843750,51,-1.0000000000,,,
3.2109375000,51,-25.0000000000,,,
3.2128906250,51,74.0000000000,33552,3.2128906250,0.0000000000
3.2148437500,51,53.0000000000,,,
3.2167968750,51,35.0000000000,,,
3.2187500000,51,40.0000000000,,,
3.2207031250,51,49.0000000000,,,
3.2226562500,51,61.0000000000,,,
3.2246093750,51,73.0000000000,,,
3.2265625000,51,60.0000000000,,,
3.2285156250,51,34.0000000000,,,
3.2304687500,51,27.0000000000,,,
3.2324218750,51,48.0000000000,,,
3.2343750000,51,60.0000000000,,,
3.2363281250,51,67.0000000000,,,
3.2382812500,51,61.0000000000,,,
3.2402343750,51,40.0000000000,,,
3.2421875000,51,25.0000000000,,,
3.2441406250,51,49.0000000000,,,
3.2460937500,51,76.0000000000,,,
3.2480468750,51,72.0000000000,,,
3.2500000000,52,56.0000000000,,,
3.2519531250,52,60.0000000000,,,
3.2539062500,52,69.0000000000,,,
3.2558593750,52,66.0000000000,,,
3.2578125000,52,60.0000000000,,,
3.2597656250,52,70.0000000000,,,
3.2617187500,52,89.0000000000,,,
3.2636718750,52,107.0000000000,,,
3.2656250000,52,113.0000000000,,,
3.2675781250,52,116.0000000000,,,
3.2695312500,52,114.0000000000,,,
3.2714843750,52,58.0000000000,33552,3.2714843750,0.0000000000
3.2734375000,52,64.0000000000,,,
3.2753906250,52,59.0000000000,,,
3.2773437500,52,36.0000000000,,,
3.2792968750,52,32.0000000000,,,
3.2812500000,52,41.0000000000,,,
3.2832031250,52,64.0000000000,,,
3.2851562500,52,82.0000000000,,,
3.2871093750,52,87.0000000000,,,
3.2890625000,52,84.0000000000,,,
3.2910156250,52,80.0000000000,,,
3.2929687500,52,73.0000000000,,,
3.2949218750,52,69.0000000000,,,
3.2968750000,52,58.0000000000,,,
3.2988281250,52,53.0000000000,,,
3.3007812500,52,27.0000000000,,,
3.3027343750,52,-4.0000000000,,,
3.3046875000,52,-25.0000000000,,,
3.3066406250,52,-40.0000000000,,,
3.3085937500,52,-49.0000000000,,,
3.3105468750,52,-45.0000000000,,,
3.3125000000,53,-38.0000000000,,,
3.3144531250,53,-19.0000000000,,,
3.3164062500,53,-7.0000000000,,,
3.3183593750,53,-25.0000000000,,,
3.3203125000,53,-37.0000000000,,,
3.3222656250,53,-19.0000000000,,,
3.3242187500,53,3.0000000000,,,
3.3261718750,53,20.0000000000,,,
3.3281250000,53,-2.0000000000,,,
3.3300781250,53,-37.0000000000,,,
3.3320312500,53,-18.0000000000,33552,3.3320312500,0.0000000000
3.3339843750,53,0.0000000000,,,
3.3359375000,53,8.0000000000,,,
3.3378906250,53,6.0000000000,,,
3.3398437500,53,10.0000000000,,,
3.3417968750,53,4.0000000000,,,
3.3437500000,53,-7.0000000000,,,
3.3457031250,53,-10.0000000000,,,
3.3476562500,53,-14.0000000000,,,
3.3496093750,53,-8.0000000000,,,
3.3515625000,53,16.0000000000,,,
3.3535156250,53,38.0000000000,,,
3.3554687500,53,58.0000000000,,,
3.3574218750,53,70.0000000000,,,
3.3593750000,53,82.0000000000,,,
3.3613281250,53,101.0000000000,,,
3.3632812500,53,120.0000000000,,,
3.3652343750,53,123.0000000000,,,
3.3671875000,53,102.0000000000,,,
3.3691406250,53,84.0000000000,,,
3.3710937500,53,88.0000000000,,,
3.3730468750,53,84.0000000000,,,
3.3750000000,54,66.0000000000,,,
3.3769531250,54,60.0000000000,,,
3.3789062500,54,65.0000000000,,,
3.3808593750,54,58.0000000000,,,
3.3828125000,54,45.0000000000,,,
3.3847656250,54,35.0000000000,,,
3.3867187500,54,35.0000000000,,,
3.3886718750,54,43.0000000000,,,
3.3906250000,54,52.0000000000,,,
3.3925781250,54,61.0000000000,33552,3.3925781250,0.0000000000
3.3945312500,54,52.0000000000,,,
3.3964843750,54,38.0000000000,,,
3.3984375000,54,35.0000000000,,,
3.4003906250,54,39.0000000000,,,
3.4023437500,54,39.0000000000,,,
3.4042968750,54,27.0000000000,,,
3.4062500000,54,5.0000000000,,,
3.4082031250,54,4.0000000000,,,
3.4101562500,54,40.0000000000,,,
3.4121093750,54,66.0000000000,,,
3.4140625000,54,52.0000000000,,,
3.4160156250,54,27.0000000000,,,
3.4179687500,54,23.0000000000,,,
3.4199218750,54,25.0000000000,,,
3.4218750000,54,27.0000000000,,,
3.4238281250,54,44.0000000000,,,
3.4257812500,54,67.0000000000,,,
3.4277343750,54,76.0000000000,,,
3.4296875000,54,70.0000000000,,,
3.4316406250,54,52.0000000000,,,
3.4335937500,54,38.0000000000,,,
3.4355468750,54,50.0000000000,,,
3.4375000000,55,55.0000000000,,,
3.4394531250,55,57.0000000000,,,
3.4414062500,55,54.0000000000,,,
3.4433593750,55,35.0000000000,,,
3.4453125000,55,27.0000000000,,,
3.4472656250,55,39.0000000000,,,
3.4492187500,55,43.0000000000,,,
3.4511718750,55,43.0000000000,,,
3.4531250000,55,49.0000000000,33552,3.4531250000,0.0000000000
3.4550781250,55,25.0000000000,,,
3.4570312500,55,21.0000000000,,,
3.4589843750,55,34.0000000000,,,
3.4609375000,55,26.0000000000,,,
3.4628906250,55,10.0000000000,,,
3.4648437500,55,8.0000000000,,,
3.4667968750,55,16.0000000000,,,
3.4687500000,55,18.0000000000,,,
3.4707031250,55,-3.0000000000,,,
3.4726562500,55,-10.0000000000,,,
3.4746093750,55,21.0000000000,,,
3.4765625000,55,59.0000000000,,,
3.4785156250,55,70.0000000000,,,
3.4804687500,55,58.0000000000,,,
3.4824218750,55,49.0000000000,,,
3.4843750000,55,48.0000000000,,,
3.4863281250,55,49.0000000000,,,
3.4882812500,55,58.0000000000,,,
3.4902343750,55,69.0000000000,,,
3.4921875000,55,64.0000000000,,,
3.4941406250,55,59.0000000000,,,
3.4960937500,55,57.0000000000,,,
3.4980468750,55,65.0000000000,,,
3.5000000000,56,70.0000000000,,,
3.5019531250,56,72.0000000000,,,
3.5039062500,56,68.0000000000,,,
3.5058593750,56,41.0000000000,,,
3.5078125000,56,16.0000000000,,,
3.5097656250,56,7.0000000000,,,
3.5117187500,56,5.0000000000,,,
3.5136718750,56,6.0000000000,,,
3.5156250000,56,13.0000000000,,,
3.5175781250,56,18.0000000000,,,
3.5195312500,56,20.0000000000,,,
3.5214843750,56,37.0000000000,,,
3.5234375000,56,50.0000000000,,,
3.5253906250,56,56.0000000000,,,
3.5273437500,56,64.0000000000,,,
3.5292968750,56,80.0000000000,,,
3.5312500000,56,81.0000000000,,,
3.5332031250,56,68.0000000000,,,
3.5351562500,56,56.0000000000,,,
3.5371093750,56,50.0000000000,,,
3.5390625000,56,51.0000000000,,,
3.5410156250,56,59.0000000000,,,
3.5429687500,56,73.0000000000,,,
3.5449218750,56,74.0000000000,,,
3.5468750000,56,60.0000000000,,,
3.5488281250,56,53.0000000000,,,
3.5507812500,56,50.0000000000,,,
3.5527343750,56,37.0000000000,,,
3.5546875000,56,33.0000000000,,,
3.5566406250,56,36.0000000000,,,
3.5585937500,56,40.0000000000,,,
3.5605468750,56,48.0000000000,,,
3.5625000000,57,49.0000000000,,,
3.5644531250,57,53.0000000000,,,
3.5664062500,57,58.0000000000,,,
3.5683593750,57,71.0000000000,,,
3.5703125000,57,87.0000000000,,,
3.5722656250,57,100.0000000000,,,
3.5742187500,57,80.0000000000,33552,3.5742187500,0.0000000000
3.5761718750,57,81.0000000000,,,
3.5781250000,57,72.0000000000,,,
3.5800781250,57,73.0000000000,,,
3.5820312500,57,80.0000000000,,,
3.5839843750,57,70.0000000000,,,
3.5859375000,57,68.0000000000,,,
3.5878906250,57,67.0000000000,,,
3.5898437500,57,68.0000000000,,,
3.5917968750,57,58.0000000000,,,
3.5937500000,57,50.0000000000,,,
3.5957031250,57,49.0000000000,,,
3.5976562500,57,59.0000000000,,,
3.5996093750,57,61.0000000000,,,
3.6015625000,57,51.0000000000,,,
3.6035156250,57,50.0000000000,,,
3.6054687500,57,61.0000000000,,,
3.6074218750,57,75.0000000000,,,
3.6093750000,57,66.0000000000,,,
3.6113281250,57,40.0000000000,,,
3.6132812500,57,18.0000000000,,,
3.6152343750,57,10.0000000000,,,
3.6171875000,57,18.0000000000,,,
3.6191406250,57,28.0000000000,,,
3.6210937500,57,49.0000000000,,,
3.6230468750,57,69.0000000000,,,
3.6250000000,58,68.0000000000,,,
3.6269531250,58,42.0000000000,,,
3.6289062500,58,27.0000000000,,,
3.6308593750,58,52.0000000000,33552,3.6308593750,0.0000000000
3.6328125000,58,21.0000000000,,,
3.6347656250,58,25.0000000000,,,
3.6367187500,58,48.0000000000,,,
3.6386718750,58,66.0000000000,,,
3.6406250000,58,80.0000000000,,,
3.6425781250,58,96.0000000000,,,
3.6445312500,58,98.0000000000,,,
3.6464843750,58,88.0000000000,,,
3.6484375000,58,54.0000000000,,,
3.6503906250,58,17.0000000000,,,
3.6523437500,58,16.0000000000,,,
3.6542968750,58,33.0000000000,,,
3.6562500000,58,29.0000000000,,,
3.6582031250,58,39.0000000000,,,
3.6601562500,58,54.0000000000,,,
3.6621093750,58,55.0000000000,,,
3.6640625000,58,54.0000000000,,,
3.6660156250,58,48.0000000000,,,
3.6679687500,58,40.0000000000,,,
3.6699218750,58,24.0000000000,,,
3.6718750000,58,3.0000000000,,,
3.6738281250,58,0.0000000000,,,
3.6757812500,58,20.0000000000,,,
3.6777343750,58,38.0000000000,,,
3.6796875000,58,44.0000000000,,,
3.6816406250,58,57.0000000000,,,
3.6835937500,58,81.0000000000,,,
3.6855468750,58,101.0000000000,,,
3.6875000000,59,88.0000000000,33552,3.6875000000,0.0000000000
3.6894531250,59,90.0000000000,33552,3.6875000000,0.0000000000
3.6914062500,59,85.0000000000,,,
3.6933593750,59,71.0000000000,,,
3.6953125000,59,70.0000000000,,,
3.6972656250,59,74.0000000000,,,
3.6992187500,59,71.0000000000,,,
3.7011718750,59,40.0000000000,,,
3.7031250000,59,18.0000000000,,,
3.7050781250,59,25.0000000000,,,
3.7070312500,59,40.0000000000,,,
3.7089843750,59,44.0000000000,,,
3.7109375000,59,38.0000000000,,,
3.7128906250,59,22.0000000000,,,
3.7148437500,59,10.0000000000,,,
3.7167968750,59,12.0000000000,,,
3.7187500000,59,10.0000000000,,,
3.7207031250,59,-3.0000000000,,,
3.7226562500,59,-18.0000000000,,,
3.7246093750,59,-18.0000000000,,,
3.7265625000,59,-37.0000000000,,,
3.7285156250,59,-67.0000000000,,,
3.7304687500,59,-74.0000000000,,,
3.7324218750,59,-38.0000000000,,,
3.7343750000,59,21.0000000000,,,
3.7363281250,59,60.0000000000,,,
3.7382812500,59,64.0000000000,,,
3.7402343750,59,32.0000000000,,,
3.7421875000,59,7.0000000000,,,
3.7441406250,59,28.0000000000,,,
3.7460937500,59,65.0000000000,,,
3.7480468750,59,49.0000000000,33552,3.7480468750,0.0000000000
3.7500000000,60,34.0000000000,,,
3.7519531250,60,27.0000000000,,,
3.7539062500,60,24.0000000000,,,
3.7558593750,60,23.0000000000,,,
3.7578125000,60,28.0000000000,,,
3.7597656250,60,34.0000000000,,,
3.7617187500,60,37.0000000000,,,
3.7636718750,60,60.0000000000,,,
3.7656250000,60,80.0000000000,,,
3.7675781250,60,74.0000000000,,,
3.7695312500,60,54.0000000000,,,
3.7714843750,60,59.0000000000,,,
3.7734375000,60,77.0000000000,,,
3.7753906250,60,68.0000000000,,,
3.7773437500,60,39.0000000000,,,
3.7792968750,60,27.0000000000,,,
3.7812500000,60,25.0000000000,,,
3.7832031250,60,24.0000000000,,,
3.7851562500,60,27.0000000000,,,
3.7871093750,60,34.0000000000,,,
3.7890625000,60,38.0000000000,,,
3.7910156250,60,38.0000000000,,,
3.7929687500,60,36.0000000000,,,
3.7949218750,60,27.0000000000,,,
3.7968750000,60,20.0000000000,,,
3.7988281250,60,18.0000000000,,,
3.8007812500,60,20.0000000000,,,
3.8027343750,60,34.0000000000,,,
3.8046875000,60,35.0000000000,,,
3.8066406250,60,54.0000000000,33552,3.8066406250,0.0000000000
3.8085937500,60,52.0000000000,,,
3.8105468750,60,48.0000000000,,,
3.8125000000,61,42.0000000000,,,
3.8144531250,61,44.0000000000,,,
3.8164062500,61,59.0000000000,,,
3.8183593750,61,71.0000000000,,,
3.8203125000,61,68.0000000000,,,
3.8222656250,61,74.0000000000,,,
3.8242187500,61,80.0000000000,,,
3.8261718750,61,71.0000000000,,,
3.8281250000,61,68.0000000000,,,
3.8300781250,61,60.0000000000,,,
3.8320312500,61,42.0000000000,,,
3.8339843750,61,23.0000000000,,,
3.8359375000,61,27.0000000000,,,
3.8378906250,61,53.0000000000,,,
3.8398437500,61,68.0000000000,,,
3.8417968750,61,59.0000000000,,,
3.8437500000,61,42.0000000000,,,
3.8457031250,61,45.0000000000,,,
3.8476562500,61,59.0000000000,,,
3.8496093750,61,66.0000000000,,,
3.8515625000,61,71.0000000000,,,
3.8535156250,61,74.0000000000,,,
3.8554687500,61,66.0000000000,,,
3.8574218750,61,60.0000000000,,,
3.8593750000,61,68.0000000000,,,
3.8613281250,61,87.0000000000,,,
3.8632812500,61,104.0000000000,,,
3.8652343750,61,97.0000000000,33552,3.8652343750,0.0000000000
3.8671875000,61,85.0000000000,,,
3.8691406250,61,54.0000000000,,,
3.8710937500,61,28.0000000000,,,
3.8730468750,61,35.0000000000,,,
3.8750000000,62,44.0000000000,,,
3.8769531250,62,41.0000000000,,,
3.8789062500,62,49.0000000000,,,
3.8808593750,62,44.0000000000,,,
3.8828125000,62,35.0000000000,,,
3.8847656250,62,26.0000000000,,,
3.8867187500,62,22.0000000000,,,
3.8886718750,62,24.0000000000,,,
3.8906250000,62,28.0000000000,,,
3.8925781250,62,22.0000000000,,,
3.8945312500,62,17.0000000000,,,
3.8964843750,62,13.0000000000,,,
3.8984375000,62,28.0000000000,,,
3.9003906250,62,42.0000000000,,,
3.9023437500,62,25.0000000000,,,
3.9042968750,62,6.0000000000,,,
3.9062500000,62,8.0000000000,,,
3.9082031250,62,25.0000000000,,,
3.9101562500,62,28.0000000000,,,
3.9121093750,62,36.0000000000,,,
3.9140625000,62,35.0000000000,,,
3.9160156250,62,27.0000000000,,,
3.9179687500,62,22.0000000000,,,
3.9199218750,62,12.0000000000,,,
3.9218750000,62,6.0000000000,,,
3.9238281250,62,-5.0000000000,33552,3.9238281250,0.0000000000
3.9257812500,62,-10.0000000000,,,
3.9277343750,62,-22.0000000000,,,
3.9296875000,62,-41.0000000000,,,
3.9316406250,62,-52.0000000000,,,
3.9335937500,62,-41.0000000000,,,
3.9355468750,62,-24.0000000000,,,
3.9375000000,63,-5.0000000000,,,
3.9394531250,63,16.0000000000,,,
3.9414062500,63,22.0000000000,,,
3.9433593750,63,18.0000000000,,,
3.9453125000,63,5.0000000000,,,
3.9472656250,63,-13.0000000000,,,
3.9492187500,63,-26.0000000000,,,
3.9511718750,63,-22.0000000000,,,
3.9531250000,63,-4.0000000000,,,
3.9550781250,63,-5.0000000000,,,
3.9570312500,63,-17.0000000000,,,
3.9589843750,63,-3.0000000000,,,
3.9609375000,63,26.0000000000,,,
3.9628906250,63,38.0000000000,,,
3.9648437500,63,43.0000000000,,,
3.9667968750,63,54.0000000000,,,
3.9687500000,63,68.0000000000,,,
3.9707031250,63,71.0000000000,,,
3.9726562500,63,80.0000000000,,,
3.9746093750,63,76.0000000000,,,
3.9765625000,63,66.0000000000,,,
3.9785156250,63,73.0000000000,,,
3.9804687500,63,87.0000000000,,,
3.9824218750,63,73.0000000000,,,
3.9843750000,63,53.0000000000,,,
3.9863281250,63,49.0000000000,,,
3.9882812500,63,67.0000000000,,,
3.9902343750,63,72.0000000000,,,
3.9921875000,63,55.0000000000,,,
3.9941406250,63,45.0000000000,,,
3.9960937500,63,43.0000000000,,,
3.9980468750,63,39.0000000000,,,
4.0000000000,64,44.0000000000,,,
4.0019531250,64,50.0000000000,,,
4.0039062500,64,50.0000000000,,,
4.0058593750,64,44.0000000000,,,
4.0078125000,64,41.0000000000,,,
4.0097656250,64,48.0000000000,,,
4.0117187500,64,36.0000000000,,,
4.0136718750,64,6.0000000000,,,
4.0156250000,64,-12.0000000000,,,
4.0175781250,64,-12.0000000000,,,
4.0195312500,64,3.0000000000,,,
4.0214843750,64,26.0000000000,,,
4.0234375000,64,53.0000000000,,,
4.0253906250,64,66.0000000000,,,
4.0273437500,64,72.0000000000,,,
4.0292968750,64,91.0000000000,,,
4.0312500000,64,129.0000000000,,,
4.0332031250,64,151.0000000000,,,
4.0351562500,64,138.0000000000,,,
4.0371093750,64,104.0000000000,,,
4.0390625000,64,86.0000000000,,,
4.0410156250,64,84.0000000000,,,
4.0429687500,64,76.0000000000,,,
4.0449218750,64,76.0000000000,,,
4.0468750000,64,84.0000000000,,,
4.0488281250,64,99.0000000000,,,
4.0507812500,64,115.0000000000,,,
4.0527343750,64,112.0000000000,,,
4.0546875000,64,107.0000000000,,,
4.0566406250,64,102.0000000000,,,
4.0585937500,64,100.0000000000,,,
4.0605468750,64,122.0000000000,,,
4.0625000000,65,146.0000000000,,,
4.0644531250,65,149.0000000000,,,
4.0664062500,65,148.0000000000,,,
4.0683593750,65,128.0000000000,,,
4.0703125000,65,90.0000000000,,,
4.0722656250,65,72.0000000000,,,
4.0742187500,65,61.0000000000,,,
4.0761718750,65,39.0000000000,,,
4.0781250000,65,22.0000000000,,,
4.0800781250,65,19.0000000000,,,
4.0820312500,65,17.0000000000,,,
4.0839843750,65,22.0000000000,,,
4.0859375000,65,20.0000000000,,,
4.0878906250,65,5.0000000000,,,
4.0898437500,65,8.0000000000,,,
4.0917968750,65,18.0000000000,,,
4.0937500000,65,17.0000000000,,,
4.0957031250,65,12.0000000000,,,
4.0976562500,65,8.0000000000,,,
4.0996093750,65,1.0000000000,,,
4.1015625000,65,8.0000000000,,,
4.1035156250,65,20.0000000000,,,
4.1054687500,65,16.0000000000,,,
4.1074218750,65,8.0000000000,,,
4.1093750000,65,5.0000000000,33552,4.1093750000,0.0000000000
4.1113281250,65,-7.0000000000,,,
4.1132812500,65,5.0000000000,,,
4.1152343750,65,25.0000000000,,,
4.1171875000,65,34.0000000000,,,
4.1191406250,65,22.0000000000,,,
4.1210937500,65,0.0000000000,,,
4.1230468750,65,-7.0000000000,,,
4.1250000000,66,7.0000000000,,,
4.1269531250,66,28.0000000000,,,
4.1289062500,66,35.0000000000,,,
4.1308593750,66,32.0000000000,,,
4.1328125000,66,42.0000000000,,,
4.1347656250,66,53.0000000000,,,
4.1367187500,66,43.0000000000,,,
4.1386718750,66,35.0000000000,,,
4.1406250000,66,34.0000000000,,,
4.1425781250,66,36.0000000000,,,
4.1445312500,66,29.0000000000,,,
4.1464843750,66,16.0000000000,,,
4.1484375000,66,-2.0000000000,,,
4.1503906250,66,5.0000000000,,,
4.1523437500,66,24.0000000000,,,
4.1542968750,66,37.0000000000,,,
4.1562500000,66,22.0000000000,,,
4.1582031250,66,-7.0000000000,,,
4.1601562500,66,-19.0000000000,,,
4.1621093750,66,-2.0000000000,,,
4.1640625000,66,28.0000000000,,,
4.1660156250,66,38.0000000000,,,
4.1679687500,66,34.0000000000,,,
4.1699218750,66,51.0000000000,,,
4.1718750000,66,72.0000000000,,,
4.1738281250,66,66.0000000000,,,
4.1757812500,66,34.0000000000,,,
4.1777343750,66,17.0000000000,,,
4.1796875000,66,27.0000000000,,,
4.1816406250,66,45.0000000000,,,
4.1835937500,66,43.0000000000,,,
4.1855468750,66,41.0000000000,,,
4.1875000000,67,56.0000000000,,,
4.1894531250,67,76.0000000000,,,
4.1914062500,67,89.0000000000,,,
4.1933593750,67,77.0000000000,,,
4.1953125000,67,52.0000000000,,,
4.1972656250,67,38.0000000000,,,
4.1992187500,67,36.0000000000,,,
4.2011718750,67,38.0000000000,,,
4.2031250000,67,51.0000000000,,,
4.2050781250,67,70.0000000000,,,
4.2070312500,67,72.0000000000,,,
4.2089843750,67,70.0000000000,,,
4.2109375000,67,69.0000000000,,,
4.2128906250,67,71.0000000000,,,
4.2148437500,67,70.0000000000,,,
4.2167968750,67,53.0000000000,,,
4.2187500000,67,35.0000000000,,,
4.2207031250,67,23.0000000000,,,
4.2226562500,67,20.0000000000,,,
4.2246093750,67,21.0000000000,,,
4.2265625000,67,32.0000000000,,,
4.2285156250,67,54.0000000000,,,
4.2304687500,67,71.0000000000,,,
4.2324218750,67,59.0000000000,,,
4.2343750000,67,52.0000000000,,,
4.2363281250,67,55.0000000000,,,
4.2382812500,67,56.0000000000,,,
4.2402343750,67,55.0000000000,,,
4.2421875000,67,56.0000000000,,,
4.2441406250,67,53.0000000000,,,
4.2460937500,67,48.0000000000,,,
4.2480468750,67,22.0000000000,,,
4.2500000000,68,5.0000000000,,,
4.2519531250,68,12.0000000000,,,
4.2539062500,68,34.0000000000,,,
4.2558593750,68,52.0000000000,,,
4.2578125000,68,53.0000000000,,,
4.2597656250,68,41.0000000000,,,
4.2617187500,68,40.0000000000,,,
4.2636718750,68,43.0000000000,,,
4.2656250000,68,40.0000000000,,,
4.2675781250,68,38.0000000000,,,
4.2695312500,68,44.0000000000,,,
4.2714843750,68,57.0000000000,,,
4.2734375000,68,70.0000000000,,,
4.2753906250,68,65.0000000000,,,
4.2773437500,68,44.0000000000,,,
4.2792968750,68,48.0000000000,,,
4.2812500000,68,53.0000000000,,,
4.2832031250,68,51.0000000000,,,
4.2851562500,68,42.0000000000,,,
4.2871093750,68,20.0000000000,,,
4.2890625000,68,8.0000000000,,,
4.2910156250,68,10.0000000000,,,
4.2929687500,68,24.0000000000,,,
4.2949218750,68,38.0000000000,,,
4.2968750000,68,41.0000000000,,,
4.2988281250,68,27.0000000000,,,
4.3007812500,68,24.0000000000,,,
4.3027343750,68,40.0000000000,,,
4.3046875000,68,48.0000000000,,,
4.3066406250,68,36.0000000000,,,
4.3085937500,68,35.0000000000,,,
4.3105468750,68,39.0000000000,,,
4.3125000000,69,42.0000000000,,,
4.3144531250,69,44.0000000000,,,
4.3164062500,69,45.0000000000,,,
4.3183593750,69,54.0000000000,,,
4.3203125000,69,71.0000000000,,,
4.3222656250,69,81.0000000000,,,
4.3242187500,69,66.0000000000,,,
4.3261718750,69,44.0000000000,,,
4.3281250000,69,51.0000000000,,,
4.3300781250,69,66.0000000000,,,
4.3320312500,69,65.0000000000,,,
4.3339843750,69,44.0000000000,,,
4.3359375000,69,33.0000000000,,,
4.3378906250,69,32.0000000000,,,
4.3398437500,69,37.0000000000,,,
4.3417968750,69,36.0000000000,,,
4.3437500000,69,27.0000000000,,,
4.3457031250,69,24.0000000000,,,
4.3476562500,69,27.0000000000,,,
4.3496093750,69,22.0000000000,,,
4.3515625000,69,0.0000000000,,,
4.3535156250,69,-19.0000000000,,,
4.3554687500,69,-25.0000000000,,,
4.3574218750,69,-33.0000000000,,,
4.3593750000,69,-34.0000000000,,,
4.3613281250,69,-30.0000000000,,,
4.3632812500,69,-27.0000000000,,,
4.3652343750,69,-27.0000000000,,,
4.3671875000,69,-18.0000000000,,,
4.3691406250,69,-12.0000000000,,,
4.3710937500,69,-28.0000000000,,,
4.3730468750,69,-39.0000000000,,,
4.3750000000,70,-36.0000000000,,,
4.3769531250,70,-35.0000000000,,,
4.3789062500,70,-49.0000000000,,,
4.3808593750,70,-61.0000000000,,,
4.3828125000,70,-55.0000000000,,,
4.3847656250,70,-38.0000000000,,,
4.3867187500,70,-37.0000000000,,,
4.3886718750,70,-43.0000000000,,,
4.3906250000,70,-46.0000000000,,,
4.3925781250,70,-39.0000000000,,,
4.3945312500,70,-36.0000000000,,,
4.3964843750,70,-42.0000000000,,,
4.3984375000,70,-43.0000000000,,,
4.4003906250,70,-36.0000000000,,,
4.4023437500,70,-29.0000000000,,,
4.4042968750,70,-42.0000000000,,,
4.4062500000,70,-59.0000000000,,,
4.4082031250,70,-61.0000000000,,,
4.4101562500,70,-50.0000000000,,,
4.4121093750,70,-40.0000000000,,,
4.4140625000,70,-27.0000000000,,,
4.4160156250,70,-11.0000000000,,,
4.4179687500,70,-1.0000000000,,,
4.4199218750,70,27.0000000000,33552,4.4199218750,0.0000000000
4.4218750000,70,41.0000000000,,,
4.4238281250,70,36.0000000000,,,
4.4257812500,70,20.0000000000,,,
4.4277343750,70,12.0000000000,,,
4.4296875000,70,23.0000000000,,,
4.4316406250,70,40.0000000000,,,
4.4335937500,70,45.0000000000,,,
4.4355468750,70,32.0000000000,,,
4.4375000000,71,25.0000000000,,,
4.4394531250,71,44.0000000000,,,
4.4414062500,71,53.0000000000,,,
4.4433593750,71,37.0000000000,,,
4.4453125000,71,37.0000000000,,,
4.4472656250,71,65.0000000000,,,
4.4492187500,71,85.0000000000,,,
4.4511718750,71,80.0000000000,,,
4.4531250000,71,69.0000000000,,,
4.4550781250,71,67.0000000000,,,
4.4570312500,71,68.0000000000,,,
4.4589843750,71,76.0000000000,,,
4.4609375000,71,77.0000000000,,,
4.4628906250,71,64.0000000000,,,
4.4648437500,71,64.0000000000,,,
4.4667968750,71,65.0000000000,,,
4.4687500000,71,50.0000000000,,,
4.4707031250,71,44.0000000000,,,
4.4726562500,71,54.0000000000,,,
4.4746093750,71,64.0000000000,,,
4.4765625000,71,60.0000000000,,,
4.4785156250,71,55.0000000000,,,
4.4804687500,71,64.0000000000,,,
4.4824218750,71,59.0000000000,,,
4.4843750000,71,49.0000000000,,,
4.4863281250,71,54.0000000000,,,
4.4882812500,71,64.0000000000,,,
4.4902343750,71,67.0000000000,,,
4.4921875000,71,67.0000000000,,,
4.4941406250,71,66.0000000000,,,
4.4960937500,71,72.0000000000,,,
4.4980468750,71,72.0000000000,,,
4.5000000000,72,66.0000000000,,,
4.5019531250,72,58.0000000000,,,
4.5039062500,72,65.0000000000,,,
4.5058593750,72,73.0000000000,,,
4.5078125000,72,70.0000000000,,,
4.5097656250,72,64.0000000000,,,
4.5117187500,72,74.0000000000,,,
4.5136718750,72,93.0000000000,,,
4.5156250000,72,86.0000000000,,,
4.5175781250,72,45.0000000000,,,
4.5195312500,72,25.0000000000,,,
4.5214843750,72,27.0000000000,,,
4.5234375000,72,34.0000000000,,,
4.5253906250,72,25.0000000000,,,
4.5273437500,72,16.0000000000,,,
4.5292968750,72,25.0000000000,,,
4.5312500000,72,44.0000000000,,,
4.5332031250,72,49.0000000000,,,
4.5351562500,72,56.0000000000,,,
4.5371093750,72,83.0000000000,,,
4.5390625000,72,104.0000000000,,,
4.5410156250,72,122.0000000000,,,
4.5429687500,72,112.0000000000,33552,4.5429687500,0.0000000000
4.5449218750,72,84.0000000000,,,
4.5468750000,72,83.0000000000,,,
4.5488281250,72,105.0000000000,,,
4.5507812500,72,118.0000000000,,,
4.5527343750,72,100.0000000000,,,
4.5546875000,72,86.0000000000,,,
4.5566406250,72,82.0000000000,,,
4.5585937500,72,84.0000000000,,,
4.5605468750,72,90.0000000000,,,
4.5625000000,73,84.0000000000,,,
4.5644531250,73,65.0000000000,,,
4.5664062500,73,60.0000000000,,,
4.5683593750,73,80.0000000000,,,
4.5703125000,73,93.0000000000,,,
4.5722656250,73,84.0000000000,,,
4.5742187500,73,58.0000000000,,,
4.5761718750,73,41.0000000000,,,
4.5781250000,73,36.0000000000,,,
4.5800781250,73,32.0000000000,,,
4.5820312500,73,32.0000000000,,,
4.5839843750,73,42.0000000000,,,
4.5859375000,73,41.0000000000,,,
4.5878906250,73,27.0000000000,,,
4.5898437500,73,20.0000000000,,,
4.5917968750,73,25.0000000000,,,
4.5937500000,73,39.0000000000,,,
4.5957031250,73,42.0000000000,,,
4.5976562500,73,45.0000000000,,,
4.5996093750,73,58.0000000000,,,
4.6015625000,73,82.0000000000,,,
4.6035156250,73,104.0000000000,,,
4.6054687500,73,105.0000000000,,,
4.6074218750,73,88.0000000000,,,
4.6093750000,73,69.0000000000,,,
4.6113281250,73,64.0000000000,,,
4.6132812500,73,68.0000000000,,,
4.6152343750,73,76.0000000000,,,
4.6171875000,73,88.0000000000,,,
4.6191406250,73,99.0000000000,,,
4.6210937500,73,75.0000000000,,,
4.6230468750,73,66.0000000000,,,
4.6250000000,74,83.0000000000,,,
4.6269531250,74,81.0000000000,,,
4.6289062500,74,66.0000000000,,,
4.6308593750,74,51.0000000000,,,
4.6328125000,74,40.0000000000,,,
4.6347656250,74,38.0000000000,,,
4.6367187500,74,43.0000000000,,,
4.6386718750,74,42.0000000000,,,
4.6406250000,74,34.0000000000,,,
4.6425781250,74,33.0000000000,,,
4.6445312500,74,41.0000000000,,,
4.6464843750,74,61.0000000000,,,
4.6484375000,74,57.0000000000,,,
4.6503906250,74,21.0000000000,,,
4.6523437500,74,3.0000000000,,,
4.6542968750,74,10.0000000000,,,
4.6562500000,74,12.0000000000,,,
4.6582031250,74,9.0000000000,,,
4.6601562500,74,11.0000000000,,,
4.6621093750,74,5.0000000000,,,
4.6640625000,74,-7.0000000000,,,
4.6660156250,74,-7.0000000000,,,
4.6679687500,74,17.0000000000,,,
4.6699218750,74,37.0000000000,,,
4.6718750000,74,36.0000000000,,,
4.6738281250,74,26.0000000000,,,
4.6757812500,74,32.0000000000,,,
4.6777343750,74,44.0000000000,,,
4.6796875000,74,52.0000000000,,,
4.6816406250,74,49.0000000000,,,
4.6835937500,74,50.0000000000,,,
4.6855468750,74,52.0000000000,,,
4.6875000000,75,41.0000000000,,,
4.6894531250,75,22.0000000000,,,
4.6914062500,75,10.0000000000,,,
4.6933593750,75,11.0000000000,,,
4.6953125000,75,23.0000000000,,,
4.6972656250,75,41.0000000000,,,
4.6992187500,75,53.0000000000,,,
4.7011718750,75,40.0000000000,,,
4.7031250000,75,34.0000000000,,,
4.7050781250,75,36.0000000000,,,
4.7070312500,75,38.0000000000,,,
4.7089843750,75,36.0000000000,,,
4.7109375000,75,29.0000000000,,,
4.7128906250,75,16.0000000000,,,
4.7148437500,75,17.0000000000,,,
4.7167968750,75,44.0000000000,,,
4.7187500000,75,66.0000000000,,,
4.7207031250,75,74.0000000000,,,
4.7226562500,75,92.0000000000,,,
4.7246093750,75,117.0000000000,,,
4.7265625000,75,130.0000000000,,,
4.7285156250,75,125.0000000000,,,
4.7304687500,75,124.0000000000,,,
4.7324218750,75,114.0000000000,,,
4.7343750000,75,104.0000000000,,,
4.7363281250,75,96.0000000000,,,
4.7382812500,75,87.0000000000,,,
4.7402343750,75,91.0000000000,,,
4.7421875000,75,105.0000000000,,,
4.7441406250,75,102.0000000000,,,
4.7460937500,75,96.0000000000,,,
4.7480468750,75,98.0000000000,,,
4.7500000000,76,84.0000000000,,,
4.7519531250,76,68.0000000000,,,
4.7539062500,76,50.0000000000,,,
4.7558593750,76,34.0000000000,,,
4.7578125000,76,24.0000000000,,,
4.7597656250,76,21.0000000000,,,
4.7617187500,76,20.0000000000,,,
4.7636718750,76,23.0000000000,,,
4.7656250000,76,18.0000000000,,,
4.7675781250,76,22.0000000000,,,
4.7695312500,76,32.0000000000,,,
4.7714843750,76,24.0000000000,,,
4.7734375000,76,19.0000000000,,,
4.7753906250,76,17.0000000000,,,
4.7773437500,76,-7.0000000000,,,
4.7792968750,76,-25.0000000000,,,
4.7812500000,76,-23.0000000000,,,
4.7832031250,76,-38.0000000000,,,
4.7851562500,76,-53.0000000000,,,
4.7871093750,76,-42.0000000000,,,
4.7890625000,76,-23.0000000000,,,
4.7910156250,76,-12.0000000000,33552,4.7910156250,0.0000000000
4.7929687500,76,-10.0000000000,,,
4.7949218750,76,-7.0000000000,,,
4.7968750000,76,-4.0000000000,,,
4.7988281250,76,11.0000000000,,,
4.8007812500,76,42.0000000000,,,
4.8027343750,76,40.0000000000,,,
4.8046875000,76,10.0000000000,,,
4.8066406250,76,10.0000000000,,,
4.8085937500,76,38.0000000000,,,
4.8105468750,76,48.0000000000,,,
4.8125000000,77,49.0000000000,,,
4.8144531250,77,61.0000000000,,,
4.8164062500,77,74.0000000000,,,
4.8183593750,77,57.0000000000,,,
4.8203125000,77,24.0000000000,,,
4.8222656250,77,9.0000000000,,,
4.8242187500,77,24.0000000000,,,
4.8261718750,77,48.0000000000,,,
4.8281250000,77,58.0000000000,,,
4.8300781250,77,59.0000000000,,,
4.8320312500,77,88.0000000000,,,
4.8339843750,77,102.0000000000,,,
4.8359375000,77,83.0000000000,,,
4.8378906250,77,66.0000000000,,,
4.8398437500,77,69.0000000000,,,
4.8417968750,77,83.0000000000,,,
4.8437500000,77,89.0000000000,,,
4.8457031250,77,89.0000000000,,,
4.8476562500,77,92.0000000000,,,
4.8496093750,77,105.0000000000,,,
4.8515625000,77,93.0000000000,,,
4.8535156250,77,64.0000000000,,,
4.8554687500,77,53.0000000000,,,
4.8574218750,77,60.0000000000,,,
4.8593750000,77,72.0000000000,,,
4.8613281250,77,75.0000000000,,,
4.8632812500,77,75.0000000000,,,
4.8652343750,77,68.0000000000,,,
4.8671875000,77,66.0000000000,,,
4.8691406250,77,54.0000000000,,,
4.8710937500,77,40.0000000000,,,
4.8730468750,77,39.0000000000,,,
4.8750000000,78,50.0000000000,,,
4.8769531250,78,52.0000000000,,,
4.8789062500,78,37.0000000000,,,
4.8808593750,78,6.0000000000,,,
4.8828125000,78,-7.0000000000,,,
4.8847656250,78,-6.0000000000,,,
4.8867187500,78,-7.0000000000,,,
4.8886718750,78,-9.0000000000,,,
4.8906250000,78,-3.0000000000,,,
4.8925781250,78,-4.0000000000,,,
4.8945312500,78,4.0000000000,,,
4.8964843750,78,9.0000000000,,,
4.8984375000,78,20.0000000000,,,
4.9003906250,78,29.0000000000,,,
4.9023437500,78,32.0000000000,,,
4.9042968750,78,40.0000000000,,,
4.9062500000,78,55.0000000000,,,
4.9082031250,78,57.0000000000,,,
4.9101562500,78,52.0000000000,,,
4.9121093750,78,49.0000000000,,,
4.9140625000,78,52.0000000000,,,
4.9160156250,78,71.0000000000,,,
4.9179687500,78,89.0000000000,,,
4.9199218750,78,65.0000000000,,,
4.9218750000,78,26.0000000000,,,
4.9238281250,78,24.0000000000,,,
4.9257812500,78,42.0000000000,,,
4.9277343750,78,58.0000000000,,,
4.9296875000,78,64.0000000000,,,
4.9316406250,78,57.0000000000,,,
4.9335937500,78,49.0000000000,,,
4.9355468750,78,54.0000000000,,,
4.9375000000,79,59.0000000000,,,
4.9394531250,79,67.0000000000,,,
4.9414062500,79,85.0000000000,,,
4.9433593750,79,89.0000000000,,,
4.9453125000,79,86.0000000000,,,
4.9472656250,79,82.0000000000,,,
4.9492187500,79,82.0000000000,,,
4.9511718750,79,87.0000000000,,,
4.9531250000,79,90.0000000000,,,
4.9550781250,79,89.0000000000,,,
4.9570312500,79,86.0000000000,,,
4.9589843750,79,82.0000000000,,,
4.9609375000,79,57.0000000000,,,
4.9628906250,79,23.0000000000,,,
4.9648437500,79,3.0000000000,,,
4.9667968750,79,8.0000000000,,,
4.9687500000,79,23.0000000000,,,
4.9707031250,79,32.0000000000,,,
4.9726562500,79,21.0000000000,,,
4.9746093750,79,10.0000000000,,,
4.9765625000,79,6.0000000000,,,
4.9785156250,79,8.0000000000,,,
4.9804687500,79,-3.0000000000,,,
4.9824218750,79,-28.0000000000,,,
4.9843750000,79,-23.0000000000,,,
4.9863281250,79,7.0000000000,,,
4.9882812500,79,18.0000000000,,,
4.9902343750,79,2.0000000000,,,
4.9921875000,79,3.0000000000,,,
4.9941406250,79,26.0000000000,,,
4.9960937500,79,54.0000000000,,,
4.9980468750,79,65.0000000000,,,
5.0000000000,80,64.0000000000,,,
5.0019531250,80,44.0000000000,,,
5.0039062500,80,23.0000000000,,,
5.0058593750,80,19.0000000000,,,
5.0078125000,80,10.0000000000,,,
5.0097656250,80,-10.0000000000,,,
5.0117187500,80,-24.0000000000,,,
5.0136718750,80,-10.0000000000,,,
5.0156250000,80,9.0000000000,,,
5.0175781250,80,24.0000000000,,,
5.0195312500,80,25.0000000000,,,
5.0214843750,80,38.0000000000,,,
5.0234375000,80,65.0000000000,,,
5.0253906250,80,71.0000000000,,,
5.0273437500,80,51.0000000000,,,
5.0292968750,80,26.0000000000,,,
5.0312500000,80,23.0000000000,,,
5.0332031250,80,25.0000000000,,,
5.0351562500,80,25.0000000000,,,
5.0371093750,80,32.0000000000,,,
5.0390625000,80,45.0000000000,,,
5.0410156250,80,69.0000000000,,,
5.0429687500,80,88.0000000000,,,
5.0449218750,80,85.0000000000,,,
5.0468750000,80,77.0000000000,,,
5.0488281250,80,75.0000000000,,,
5.0507812500,80,73.0000000000,,,
5.0527343750,80,69.0000000000,,,
5.0546875000,80,74.0000000000,,,
5.0566406250,80,86.0000000000,,,
5.0585937500,80,85.0000000000,,,
5.0605468750,80,80.0000000000,,,
5.0625000000,81,81.0000000000,,,
5.0644531250,81,91.0000000000,,,
5.0664062500,81,117.0000000000,,,
5.0683593750,81,130.0000000000,,,
5.0703125000,81,118.0000000000,,,
5.0722656250,81,98.0000000000,,,
5.0742187500,81,91.0000000000,,,
5.0761718750,81,80.0000000000,,,
5.0781250000,81,58.0000000000,,,
5.0800781250,81,51.0000000000,,,
5.0820312500,81,50.0000000000,,,
5.0839843750,81,64.0000000000,,,
5.0859375000,81,80.0000000000,,,
5.0878906250,81,65.0000000000,,,
5.0898437500,81,28.0000000000,,,
5.0917968750,81,3.0000000000,,,
5.0937500000,81,-8.0000000000,,,
5.0957031250,81,-3.0000000000,,,
5.0976562500,81,17.0000000000,,,
5.0996093750,81,20.0000000000,,,
5.1015625000,81,12.0000000000,,,
5.1035156250,81,27.0000000000,,,
5.1054687500,81,54.0000000000,,,
5.1074218750,81,73.0000000000,,,
5.1093750000,81,102.0000000000,,,
5.1113281250,81,140.0000000000,,,
5.1132812500,81,163.0000000000,,,
5.1152343750,81,154.0000000000,,,
5.1171875000,81,144.0000000000,,,
5.1191406250,81,144.0000000000,,,
5.1210937500,81,135.0000000000,,,
5.1230468750,81,129.0000000000,,,
5.1250000000,82,130.0000000000,,,
5.1269531250,82,133.0000000000,,,
5.1289062500,82,118.0000000000,,,
5.1308593750,82,84.0000000000,,,
5.1328125000,82,61.0000000000,,,
5.1347656250,82,67.0000000000,,,
5.1367187500,82,76.0000000000,,,
5.1386718750,82,80.0000000000,,,
5.1406250000,82,71.0000000000,,,
5.1425781250,82,60.0000000000,,,
5.1445312500,82,57.0000000000,,,
5.1464843750,82,56.0000000000,,,
5.1484375000,82,48.0000000000,,,
5.1503906250,82,56.0000000000,,,
5.1523437500,82,83.0000000000,,,
5.1542968750,82,91.0000000000,,,
5.1562500000,82,72.0000000000,,,
5.1582031250,82,44.0000000000,,,
5.1601562500,82,44.0000000000,,,
5.1621093750,82,59.0000000000,,,
5.1640625000,82,77.0000000000,,,
5.1660156250,82,82.0000000000,,,
5.1679687500,82,82.0000000000,,,
5.1699218750,82,85.0000000000,,,
5.1718750000,82,76.0000000000,,,
5.1738281250,82,68.0000000000,,,
5.1757812500,82,66.0000000000,,,
5.1777343750,82,59.0000000000,,,
5.1796875000,82,55.0000000000,,,
5.1816406250,82,48.0000000000,,,
5.1835937500,82,38.0000000000,,,
5.1855468750,82,28.0000000000,,,
5.1875000000,83,17.0000000000,,,
5.1894531250,83,10.0000000000,,,
5.1914062500,83,19.0000000000,,,
5.1933593750,83,44.0000000000,,,
5.1953125000,83,54.0000000000,,,
5.1972656250,83,53.0000000000,,,
5.1992187500,83,65.0000000000,,,
5.2011718750,83,82.0000000000,,,
5.2031250000,83,88.0000000000,,,
5.2050781250,83,91.0000000000,,,
5.2070312500,83,98.0000000000,,,
5.2089843750,83,89.0000000000,,,
5.2109375000,83,69.0000000000,,,
5.2128906250,83,61.0000000000,,,
5.2148437500,83,64.0000000000,,,
5.2167968750,83,45.0000000000,,,
5.2187500000,83,25.0000000000,,,
5.2207031250,83,24.0000000000,,,
5.2226562500,83,41.0000000000,,,
5.2246093750,83,58.0000000000,,,
5.2265625000,83,67.0000000000,33552,5.2265625000,0.0000000000
5.2285156250,83,76.0000000000,,,
5.2304687500,83,77.0000000000,,,
5.2324218750,83,69.0000000000,,,
5.2343750000,83,54.0000000000,,,
5.2363281250,83,58.0000000000,,,
5.2382812500,83,76.0000000000,,,
5.2402343750,83,82.0000000000,,,
5.2421875000,83,66.0000000000,,,
5.2441406250,83,44.0000000000,,,
5.2460937500,83,48.0000000000,,,
5.2480468750,83,60.0000000000,,,
5.2500000000,84,84.0000000000,,,
5.2519531250,84,90.0000000000,,,
5.2539062500,84,88.0000000000,,,
5.2558593750,84,86.0000000000,,,
5.2578125000,84,86.0000000000,,,
5.2597656250,84,82.0000000000,,,
5.2617187500,84,84.0000000000,,,
5.2636718750,84,103.0000000000,,,
5.2656250000,84,124.0000000000,,,
5.2675781250,84,130.0000000000,,,
5.2695312500,84,104.0000000000,,,
5.2714843750,84,74.0000000000,,,
5.2734375000,84,64.0000000000,,,
5.2753906250,84,44.0000000000,,,
5.2773437500,84,28.0000000000,,,
5.2792968750,84,36.0000000000,,,
5.2812500000,84,32.0000000000,,,
5.2832031250,84,20.0000000000,,,
5.2851562500,84,27.0000000000,,,
5.2871093750,84,27.0000000000,33552,5.2871093750,0.0000000000
5.2890625000,84,6.0000000000,,,
5.2910156250,84,-9.0000000000,,,
5.2929687500,84,-20.0000000000,,,
5.2949218750,84,-44.0000000000,,,
5.2968750000,84,-74.0000000000,,,
5.2988281250,84,-61.0000000000,,,
5.3007812500,84,-40.0000000000,,,
5.3027343750,84,-56.0000000000,,,
5.3046875000,84,-77.0000000000,,,
5.3066406250,84,-72.0000000000,,,
5.3085937500,84,-49.0000000000,,,
5.3105468750,84,-40.0000000000,,,
5.3125000000,85,-57.0000000000,,,
5.3144531250,85,-81.0000000000,,,
5.3164062500,85,-85.0000000000,,,
5.3183593750,85,-68.0000000000,,,
5.3203125000,85,-50.0000000000,,,
5.3222656250,85,-42.0000000000,,,
5.3242187500,85,-34.0000000000,,,
5.3261718750,85,-22.0000000000,,,
5.3281250000,85,-41.0000000000,,,
5.3300781250,85,-66.0000000000,,,
5.3320312500,85,-71.0000000000,,,
5.3339843750,85,-81.0000000000,,,
5.3359375000,85,-87.0000000000,,,
5.3378906250,85,-76.0000000000,,,
5.3398437500,85,-56.0000000000,,,
5.3417968750,85,-35.0000000000,,,
5.3437500000,85,-6.0000000000,,,
5.3457031250,85,24.0000000000,,,
5.3476562500,85,39.0000000000,,,
5.3496093750,85,25.0000000000,,,
5.3515625000,85,11.0000000000,,,
5.3535156250,85,-6.0000000000,,,
5.3554687500,85,-25.0000000000,,,
5.3574218750,85,-34.0000000000,,,
5.3593750000,85,-33.0000000000,,,
5.3613281250,85,-10.0000000000,,,
5.3632812500,85,2.0000000000,,,
5.3652343750,85,-3.0000000000,,,
5.3671875000,85,5.0000000000,,,
5.3691406250,85,17.0000000000,,,
5.3710937500,85,25.0000000000,,,
5.3730468750,85,32.0000000000,,,
5.3750000000,86,23.0000000000,,,
5.3769531250,86,3.0000000000,,,
5.3789062500,86,-11.0000000000,,,
5.3808593750,86,0.0000000000,,,
5.3828125000,86,38.0000000000,,,
5.3847656250,86,35.0000000000,,,
5.3867187500,86,-9.0000000000,,,
5.3886718750,86,-44.0000000000,,,
5.3906250000,86,-39.0000000000,,,
5.3925781250,86,-29.0000000000,,,
5.3945312500,86,-41.0000000000,,,
5.3964843750,86,-44.0000000000,,,
5.3984375000,86,-46.0000000000,,,
5.4003906250,86,-37.0000000000,,,
5.4023437500,86,-8.0000000000,,,
5.4042968750,86,-6.0000000000,,,
5.4062500000,86,-11.0000000000,,,
5.4082031250,86,-9.0000000000,,,
5.4101562500,86,-17.0000000000,,,
5.4121093750,86,-13.0000000000,,,
5.4140625000,86,6.0000000000,,,
5.4160156250,86,32.0000000000,,,
5.4179687500,86,49.0000000000,,,
5.4199218750,86,82.0000000000,,,
5.4218750000,86,100.0000000000,,,
5.4238281250,86,86.0000000000,,,
5.4257812500,86,69.0000000000,,,
5.4277343750,86,59.0000000000,,,
5.4296875000,86,49.0000000000,,,
5.4316406250,86,39.0000000000,,,
5.4335937500,86,45.0000000000,,,
5.4355468750,86,50.0000000000,,,
5.4375000000,87,28.0000000000,,,
5.4394531250,87,8.0000000000,,,
5.4414062500,87,32.0000000000,,,
5.4433593750,87,64.0000000000,,,
5.4453125000,87,52.0000000000,,,
5.4472656250,87,20.0000000000,,,
5.4492187500,87,-2.0000000000,,,
5.4511718750,87,-5.0000000000,,,
5.4531250000,87,2.0000000000,,,
5.4550781250,87,18.0000000000,,,
5.4570312500,87,44.0000000000,,,
5.4589843750,87,59.0000000000,,,
5.4609375000,87,56.0000000000,,,
5.4628906250,87,32.0000000000,,,
5.4648437500,87,3.0000000000,,,
5.4667968750,87,1.0000000000,,,
5.4687500000,87,21.0000000000,,,
5.4707031250,87,35.0000000000,,,
5.4726562500,87,33.0000000000,,,
5.4746093750,87,21.0000000000,,,
5.4765625000,87,12.0000000000,,,
5.4785156250,87,16.0000000000,,,
5.4804687500,87,35.0000000000,,,
5.4824218750,87,41.0000000000,,,
5.4843750000,87,34.0000000000,,,
5.4863281250,87,28.0000000000,,,
5.4882812500,87,20.0000000000,,,
5.4902343750,87,18.0000000000,,,
5.4921875000,87,38.0000000000,,,
5.4941406250,87,48.0000000000,,,
5.4960937500,87,41.0000000000,,,
5.4980468750,87,36.0000000000,,,
5.5000000000,88,48.0000000000,,,
5.5019531250,88,58.0000000000,,,
5.5039062500,88,60.0000000000,,,
5.5058593750,88,42.0000000000,,,
5.5078125000,88,16.0000000000,,,
5.5097656250,88,11.0000000000,,,
5.5117187500,88,28.0000000000,,,
5.5136718750,88,51.0000000000,,,
5.5156250000,88,70.0000000000,,,
5.5175781250,88,83.0000000000,,,
5.5195312500,88,80.0000000000,,,
5.5214843750,88,73.0000000000,,,
5.5234375000,88,70.0000000000,,,
5.5253906250,88,58.0000000000,,,
5.5273437500,88,42.0000000000,,,
5.5292968750,88,39.0000000000,,,
5.5312500000,88,38.0000000000,,,
5.5332031250,88,41.0000000000,,,
5.5351562500,88,50.0000000000,,,
5.5371093750,88,56.0000000000,,,
5.5390625000,88,70.0000000000,,,
5.5410156250,88,91.0000000000,,,
5.5429687500,88,99.0000000000,,,
5.5449218750,88,84.0000000000,,,
5.5468750000,88,72.0000000000,,,
5.5488281250,88,60.0000000000,,,
5.5507812500,88,49.0000000000,,,
5.5527343750,88,42.0000000000,,,
5.5546875000,88,28.0000000000,,,
5.5566406250,88,9.0000000000,,,
5.5585937500,88,13.0000000000,,,
5.5605468750,88,52.0000000000,,,
5.5625000000,89,85.0000000000,,,
5.5644531250,89,100.0000000000,,,
5.5664062500,89,104.0000000000,,,
5.5683593750,89,102.0000000000,,,
5.5703125000,89,102.0000000000,,,
5.5722656250,89,83.0000000000,,,
5.5742187500,89,51.0000000000,,,
5.5761718750,89,34.0000000000,,,
5.5781250000,89,53.0000000000,,,
5.5800781250,89,74.0000000000,,,
5.5820312500,89,69.0000000000,,,
5.5839843750,89,42.0000000000,,,
5.5859375000,89,25.0000000000,,,
5.5878906250,89,41.0000000000,,,
5.5898437500,89,65.0000000000,,,
5.5917968750,89,61.0000000000,,,
5.5937500000,89,27.0000000000,,,
5.5957031250,89,4.0000000000,,,
5.5976562500,89,11.0000000000,,,
5.5996093750,89,38.0000000000,,,
5.6015625000,89,50.0000000000,,,
5.6035156250,89,51.0000000000,,,
5.6054687500,89,54.0000000000,,,
5.6074218750,89,77.0000000000,,,
5.6093750000,89,97.0000000000,,,
5.6113281250,89,74.0000000000,,,
5.6132812500,89,23.0000000000,,,
5.6152343750,89,-2.0000000000,,,
5.6171875000,89,-2.0000000000,,,
5.6191406250,89,-7.0000000000,,,
5.6210937500,89,-21.0000000000,,,
5.6230468750,89,-21.0000000000,,,
5.6250000000,90,-12.0000000000,,,
5.6269531250,90,-9.0000000000,,,
5.6289062500,90,-4.0000000000,,,
5.6308593750,90,2.0000000000,,,
5.6328125000,90,8.0000000000,,,
5.6347656250,90,17.0000000000,,,
5.6367187500,90,8.0000000000,,,
5.6386718750,90,-7.0000000000,,,
5.6406250000,90,-12.0000000000,,,
5.6425781250,90,-10.0000000000,,,
5.6445312500,90,-1.0000000000,,,
5.6464843750,90,16.0000000000,,,
5.6484375000,90,34.0000000000,,,
5.6503906250,90,41.0000000000,,,
5.6523437500,90,39.0000000000,,,
5.6542968750,90,36.0000000000,,,
5.6562500000,90,4.0000000000,,,
5.6582031250,90,-35.0000000000,,,
5.6601562500,90,-46.0000000000,,,
5.6621093750,90,-33.0000000000,,,
5.6640625000,90,-2.0000000000,,,
5.6660156250,90,24.0000000000,,,
5.6679687500,90,37.0000000000,,,
5.6699218750,90,38.0000000000,,,
5.6718750000,90,24.0000000000,,,
5.6738281250,90,16.0000000000,,,
5.6757812500,90,32.0000000000,,,
5.6777343750,90,57.0000000000,,,
5.6796875000,90,88.0000000000,,,
5.6816406250,90,98.0000000000,,,
5.6835937500,90,84.0000000000,,,
5.6855468750,90,90.0000000000,,,
5.6875000000,91,72.0000000000,,,
5.6894531250,91,32.0000000000,,,
5.6914062500,91,34.0000000000,,,
5.6933593750,91,43.0000000000,,,
5.6953125000,91,26.0000000000,,,
5.6972656250,91,2.0000000000,,,
5.6992187500,91,16.0000000000,,,
5.7011718750,91,48.0000000000,,,
5.7031250000,91,61.0000000000,,,
5.7050781250,91,73.0000000000,,,
5.7070312500,91,101.0000000000,,,
5.7089843750,91,125.0000000000,,,
5.7109375000,91,122.0000000000,,,
5.7128906250,91,88.0000000000,,,
5.7148437500,91,55.0000000000,,,
5.7167968750,91,43.0000000000,,,
5.7187500000,91,24.0000000000,,,
5.7207031250,91,10.0000000000,,,
5.7226562500,91,26.0000000000,,,
5.7246093750,91,33.0000000000,,,
5.7265625000,91,20.0000000000,,,
5.7285156250,91,0.0000000000,,,
5.7304687500,91,-7.0000000000,,,
5.7324218750,91,3.0000000000,,,
5.7343750000,91,24.0000000000,,,
5.7363281250,91,21.0000000000,,,
5.7382812500,91,-2.0000000000,,,
5.7402343750,91,16.0000000000,,,
5.7421875000,91,64.0000000000,,,
5.7441406250,91,88.0000000000,,,
5.7460937500,91,64.0000000000,,,
5.7480468750,91,25.0000000000,,,
5.7500000000,92,12.0000000000,,,
5.7519531250,92,32.0000000000,,,
5.7539062500,92,49.0000000000,,,
5.7558593750,92,32.0000000000,,,
5.7578125000,92,-5.0000000000,,,
5.7597656250,92,-34.0000000000,,,
5.7617187500,92,-51.0000000000,,,
5.7636718750,92,-43.0000000000,,,
5.7656250000,92,-2.0000000000,,,
5.7675781250,92,50.0000000000,,,
5.7695312500,92,69.0000000000,,,
5.7714843750,92,54.0000000000,,,
5.7734375000,92,57.0000000000,,,
5.7753906250,92,75.0000000000,,,
5.7773437500,92,64.0000000000,,,
5.7792968750,92,60.0000000000,,,
5.7812500000,92,81.0000000000,,,
5.7832031250,92,81.0000000000,,,
5.7851562500,92,75.0000000000,,,
5.7871093750,92,84.0000000000,,,
5.7890625000,92,82.0000000000,,,
5.7910156250,92,66.0000000000,,,
5.7929687500,92,44.0000000000,,,
5.7949218750,92,34.0000000000,,,
5.7968750000,92,34.0000000000,,,
5.7988281250,92,26.0000000000,,,
5.8007812500,92,26.0000000000,,,
5.8027343750,92,41.0000000000,,,
5.8046875000,92,49.0000000000,,,
5.8066406250,92,64.0000000000,,,
5.8085937500,92,92.0000000000,,,
5.8105468750,92,119.0000000000,,,
5.8125000000,93,122.0000000000,,,
5.8144531250,93,125.0000000000,,,
5.8164062500,93,123.0000000000,,,
5.8183593750,93,120.0000000000,,,
5.8203125000,93,108.0000000000,,,
5.8222656250,93,74.0000000000,,,
5.8242187500,93,27.0000000000,,,
5.8261718750,93,6.0000000000,,,
5.8281250000,93,3.0000000000,,,
5.8300781250,93,6.0000000000,,,
5.8320312500,93,0.0000000000,,,
5.8339843750,93,-5.0000000000,,,
5.8359375000,93,11.0000000000,,,
5.8378906250,93,28.0000000000,,,
5.8398437500,93,40.0000000000,,,
5.8417968750,93,59.0000000000,,,
5.8437500000,93,92.0000000000,,,
5.8457031250,93,102.0000000000,,,
5.8476562500,93,57.0000000000,33552,5.8476562500,0.0000000000
5.8496093750,93,34.0000000000,,,
5.8515625000,93,8.0000000000,,,
5.8535156250,93,22.0000000000,,,
5.8554687500,93,50.0000000000,,,
5.8574218750,93,53.0000000000,,,
5.8593750000,93,50.0000000000,,,
5.8613281250,93,38.0000000000,,,
5.8632812500,93,39.0000000000,,,
5.8652343750,93,53.0000000000,,,
5.8671875000,93,71.0000000000,,,
5.8691406250,93,97.0000000000,,,
5.8710937500,93,106.0000000000,,,
5.8730468750,93,83.0000000000,,,
5.8750000000,94,41.0000000000,,,
5.8769531250,94,44.0000000000,,,
5.8789062500,94,71.0000000000,,,
5.8808593750,94,58.0000000000,,,
5.8828125000,94,37.0000000000,,,
5.8847656250,94,27.0000000000,,,
5.8867187500,94,26.0000000000,,,
5.8886718750,94,38.0000000000,,,
5.8906250000,94,53.0000000000,,,
5.8925781250,94,43.0000000000,,,
5.8945312500,94,40.0000000000,,,
5.8964843750,94,67.0000000000,,,
5.8984375000,94,64.0000000000,,,
5.9003906250,94,34.0000000000,,,
5.9023437500,94,26.0000000000,,,
5.9042968750,94,45.0000000000,,,
5.9062500000,94,54.0000000000,,,
5.9082031250,94,34.0000000000,,,
5.9101562500,94,36.0000000000,,,
5.9121093750,94,65.0000000000,,,
5.9140625000,94,80.0000000000,,,
5.9160156250,94,67.0000000000,,,
5.9179687500,94,34.0000000000,,,
5.9199218750,94,20.0000000000,,,
5.9218750000,94,45.0000000000,,,
5.9238281250,94,69.0000000000,,,
5.9257812500,94,54.0000000000,,,
5.9277343750,94,-3.0000000000,,,
5.9296875000,94,-49.0000000000,,,
5.9316406250,94,-45.0000000000,,,
5.9335937500,94,-11.0000000000,,,
5.9355468750,94,36.0000000000,,,
5.9375000000,95,59.0000000000,,,
5.9394531250,95,64.0000000000,,,
5.9414062500,95,71.0000000000,,,
5.9433593750,95,58.0000000000,,,
5.9453125000,95,53.0000000000,,,
5.9472656250,95,72.0000000000,,,
5.9492187500,95,80.0000000000,,,
5.9511718750,95,76.0000000000,,,
5.9531250000,95,53.0000000000,,,
5.9550781250,95,8.0000000000,,,
5.9570312500,95,-22.0000000000,,,
5.9589843750,95,-36.0000000000,,,
5.9609375000,95,-43.0000000000,,,
5.9628906250,95,-44.0000000000,,,
5.9648437500,95,-28.0000000000,,,
5.9667968750,95,-12.0000000000,,,
5.9687500000,95,12.0000000000,,,
5.9707031250,95,90.0000000000,33552,5.9707031250,0.0000000000
5.9726562500,95,112.0000000000,,,
5.9746093750,95,87.0000000000,,,
5.9765625000,95,33.0000000000,,,
5.9785156250,95,-7.0000000000,,,
5.9804687500,95,-21.0000000000,,,
5.9824218750,95,-24.0000000000,,,
5.9843750000,95,-44.0000000000,,,
5.9863281250,95,-50.0000000000,,,
5.9882812500,95,-40.0000000000,,,
5.9902343750,95,-28.0000000000,,,
5.9921875000,95,2.0000000000,,,
5.9941406250,95,32.0000000000,,,
5.9960937500,95,18.0000000000,,,
5.9980468750,95,-22.0000000000,,,
6.0000000000,96,-58.0000000000,,,
6.0019531250,96,-82.0000000000,,,
6.0039062500,96,-82.0000000000,,,
6.0058593750,96,-74.0000000000,,,
6.0078125000,96,-58.0000000000,,,
6.0097656250,96,-26.0000000000,,,
6.0117187500,96,-10.0000000000,,,
6.0136718750,96,-12.0000000000,,,
6.0156250000,96,-28.0000000000,,,
6.0175781250,96,-44.0000000000,,,
6.0195312500,96,-58.0000000000,,,
6.0214843750,96,-71.0000000000,,,
6.0234375000,96,-83.0000000000,,,
6.0253906250,96,-87.0000000000,,,
6.0273437500,96,-66.0000000000,,,
6.0292968750,96,-33.0000000000,,,
6.0312500000,96,-7.0000000000,,,
6.0332031250,96,10.0000000000,,,
6.0351562500,96,32.0000000000,,,
6.0371093750,96,2.0000000000,,,
6.0390625000,96,-29.0000000000,,,
6.0410156250,96,-8.0000000000,,,
6.0429687500,96,35.0000000000,,,
6.0449218750,96,25.0000000000,,,
6.0468750000,96,-13.0000000000,,,
6.0488281250,96,-24.0000000000,,,
6.0507812500,96,-3.0000000000,,,
6.0527343750,96,6.0000000000,,,
6.0546875000,96,10.0000000000,,,
6.0566406250,96,36.0000000000,,,
6.0585937500,96,56.0000000000,,,
6.0605468750,96,64.0000000000,,,
6.0625000000,97,52.0000000000,,,
6.0644531250,97,20.0000000000,,,
6.0664062500,97,4.0000000000,,,
6.0683593750,97,27.0000000000,,,
6.0703125000,97,69.0000000000,,,
6.0722656250,97,98.0000000000,,,
6.0742187500,97,105.0000000000,,,
6.0761718750,97,107.0000000000,,,
6.0781250000,97,105.0000000000,,,
6.0800781250,97,104.0000000000,,,
6.0820312500,97,85.0000000000,,,
6.0839843750,97,43.0000000000,,,
6.0859375000,97,32.0000000000,,,
6.0878906250,97,48.0000000000,,,
6.0898437500,97,43.0000000000,,,
6.0917968750,97,50.0000000000,,,
6.0937500000,97,84.0000000000,,,
6.0957031250,97,128.0000000000,,,
6.0976562500,97,156.0000000000,,,
6.0996093750,97,160.0000000000,,,
6.1015625000,97,132.0000000000,,,
6.1035156250,97,130.0000000000,,,
6.1054687500,97,160.0000000000,,,
6.1074218750,97,165.0000000000,,,
6.1093750000,97,148.0000000000,,,
6.1113281250,97,146.0000000000,,,
6.1132812500,97,154.0000000000,,,
6.1152343750,97,150.0000000000,,,
6.1171875000,97,141.0000000000,,,
6.1191406250,97,144.0000000000,,,
6.1210937500,97,144.0000000000,,,
6.1230468750,97,145.0000000000,,,
6.1250000000,98,157.0000000000,,,
6.1269531250,98,163.0000000000,,,
6.1289062500,98,137.0000000000,,,
6.1308593750,98,114.0000000000,,,
6.1328125000,98,100.0000000000,,,
6.1347656250,98,99.0000000000,,,
6.1367187500,98,104.0000000000,,,
6.1386718750,98,115.0000000000,,,
6.1406250000,98,113.0000000000,,,
6.1425781250,98,112.0000000000,,,
6.1445312500,98,115.0000000000,,,
6.1464843750,98,117.0000000000,,,
6.1484375000,98,118.0000000000,,,
6.1503906250,98,105.0000000000,,,
6.1523437500,98,91.0000000000,,,
6.1542968750,98,64.0000000000,,,
6.1562500000,98,18.0000000000,,,
6.1582031250,98,2.0000000000,,,
6.1601562500,98,10.0000000000,,,
6.1621093750,98,7.0000000000,,,
6.1640625000,98,1.0000000000,,,
6.1660156250,98,35.0000000000,,,
6.1679687500,98,73.0000000000,,,
6.1699218750,98,70.0000000000,,,
6.1718750000,98,52.0000000000,,,
6.1738281250,98,51.0000000000,,,
6.1757812500,98,48.0000000000,,,
6.1777343750,98,33.0000000000,,,
6.1796875000,98,37.0000000000,,,
6.1816406250,98,48.0000000000,,,
6.1835937500,98,82.0000000000,,,
6.1855468750,98,108.0000000000,,,
6.1875000000,99,103.0000000000,,,
6.1894531250,99,67.0000000000,,,
6.1914062500,99,9.0000000000,,,
6.1933593750,99,-18.0000000000,,,
6.1953125000,99,-7.0000000000,,,
6.1972656250,99,21.0000000000,,,
6.1992187500,99,50.0000000000,,,
6.2011718750,99,66.0000000000,,,
6.2031250000,99,69.0000000000,,,
6.2050781250,99,70.0000000000,,,
6.2070312500,99,74.0000000000,,,
6.2089843750,99,100.0000000000,,,
6.2109375000,99,139.0000000000,,,
6.2128906250,99,164.0000000000,,,
6.2148437500,99,172.0000000000,,,
6.2167968750,99,129.0000000000,,,
6.2187500000,99,53.0000000000,,,
6.2207031250,99,1.0000000000,,,
6.2226562500,99,-11.0000000000,,,
6.2246093750,99,-14.0000000000,,,
6.2265625000,99,-22.0000000000,,,
6.2285156250,99,-14.0000000000,,,
6.2304687500,99,-20.0000000000,,,
6.2324218750,99,-38.0000000000,,,
6.2343750000,99,-29.0000000000,,,
6.2363281250,99,-12.0000000000,,,
6.2382812500,99,-4.0000000000,,,
6.2402343750,99,8.0000000000,,,
6.2421875000,99,22.0000000000,,,
6.2441406250,99,20.0000000000,,,
6.2460937500,99,-1.0000000000,,,
6.2480468750,99,-5.0000000000,,,
6.2500000000,100,18.0000000000,,,
6.2519531250,100,38.0000000000,,,
6.2539062500,100,36.0000000000,,,
6.2558593750,100,23.0000000000,,,
6.2578125000,100,13.0000000000,,,
6.2597656250,100,18.0000000000,,,
6.2617187500,100,22.0000000000,,,
6.2636718750,100,29.0000000000,,,
6.2656250000,100,22.0000000000,,,
6.2675781250,100,-13.0000000000,,,
6.2695312500,100,-43.0000000000,,,
6.2714843750,100,-27.0000000000,,,
6.2734375000,100,3.0000000000,,,
6.2753906250,100,8.0000000000,,,
6.2773437500,100,-9.0000000000,,,
6.2792968750,100,-37.0000000000,,,
6.2812500000,100,-40.0000000000,,,
6.2832031250,100,-24.0000000000,,,
6.2851562500,100,9.0000000000,,,
6.2871093750,100,26.0000000000,,,
6.2890625000,100,8.0000000000,,,
6.2910156250,100,-26.0000000000,,,
6.2929687500,100,-52.0000000000,,,
6.2949218750,100,-54.0000000000,,,
6.2968750000,100,-44.0000000000,,,
6.2988281250,100,-8.0000000000,,,
6.3007812500,100,32.0000000000,,,
6.3027343750,100,32.0000000000,,,
6.3046875000,100,1.0000000000,,,
6.3066406250,100,-4.0000000000,,,
6.3085937500,100,27.0000000000,,,
6.3105468750,100,59.0000000000,,,
6.3125000000,101,59.0000000000,,,
6.3144531250,101,43.0000000000,,,
6.3164062500,101,42.0000000000,,,
6.3183593750,101,51.0000000000,,,
6.3203125000,101,55.0000000000,,,
6.3222656250,101,53.0000000000,,,
6.3242187500,101,74.0000000000,,,
6.3261718750,101,92.0000000000,,,
6.3281250000,101,112.0000000000,,,
6.3300781250,101,130.0000000000,,,
6.3320312500,101,117.0000000000,,,
6.3339843750,101,81.0000000000,,,
6.3359375000,101,70.0000000000,,,
6.3378906250,101,84.0000000000,,,
6.3398437500,101,77.0000000000,,,
6.3417968750,101,73.0000000000,,,
6.3437500000,101,82.0000000000,,,
6.3457031250,101,86.0000000000,,,
6.3476562500,101,66.0000000000,,,
6.3496093750,101,35.0000000000,,,
6.3515625000,101,28.0000000000,,,
6.3535156250,101,42.0000000000,,,
6.3554687500,101,39.0000000000,,,
6.3574218750,101,21.0000000000,,,
6.3593750000,101,-6.0000000000,,,
6.3613281250,101,-17.0000000000,,,
6.3632812500,101,7.0000000000,,,
6.3652343750,101,37.0000000000,,,
6.3671875000,101,36.0000000000,,,
6.3691406250,101,5.0000000000,,,
6.3710937500,101,-35.0000000000,,,
6.3730468750,101,-55.0000000000,,,
6.3750000000,102,-20.0000000000,,,
6.3769531250,102,24.0000000000,,,
6.3789062500,102,21.0000000000,,,
6.3808593750,102,4.0000000000,,,
6.3828125000,102,54.0000000000,,,
6.3847656250,102,134.0000000000,,,
6.3867187500,102,152.0000000000,,,
6.3886718750,102,134.0000000000,,,
6.3906250000,102,121.0000000000,,,
6.3925781250,102,130.0000000000,,,
6.3945312500,102,134.0000000000,,,
6.3964843750,102,105.0000000000,,,
6.3984375000,102,61.0000000000,,,
6.4003906250,102,56.0000000000,,,
6.4023437500,102,77.0000000000,,,
6.4042968750,102,130.0000000000,,,
6.4062500000,102,187.0000000000,,,
6.4082031250,102,197.0000000000,,,
6.4101562500,102,156.0000000000,,,
6.4121093750,102,101.0000000000,,,
6.4140625000,102,28.0000000000,,,
6.4160156250,102,-54.0000000000,,,
6.4179687500,102,-89.0000000000,,,
6.4199218750,102,-62.0000000000,,,
6.4218750000,102,-70.0000000000,,,
6.4238281250,102,-90.0000000000,,,
6.4257812500,102,-118.0000000000,,,
6.4277343750,102,-182.0000000000,,,
6.4296875000,102,-216.0000000000,,,
6.4316406250,102,-177.0000000000,,,
6.4335937500,102,-132.0000000000,,,
6.4355468750,102,-107.0000000000,,,
6.4375000000,103,-85.0000000000,,,
6.4394531250,103,-77.0000000000,,,
6.4414062500,103,-67.0000000000,,,
6.4433593750,103,-49.0000000000,,,
6.4453125000,103,5.0000000000,,,
6.4472656250,103,51.0000000000,,,
6.4492187500,103,32.0000000000,,,
6.4511718750,103,-7.0000000000,,,
6.4531250000,103,-24.0000000000,,,
6.4550781250,103,-12.0000000000,,,
6.4570312500,103,3.0000000000,,,
6.4589843750,103,28.0000000000,,,
6.4609375000,103,58.0000000000,,,
6.4628906250,103,89.0000000000,,,
6.4648437500,103,74.0000000000,,,
6.4667968750,103,54.0000000000,,,
6.4687500000,103,74.0000000000,,,
6.4707031250,103,89.0000000000,,,
6.4726562500,103,65.0000000000,,,
6.4746093750,103,56.0000000000,,,
6.4765625000,103,73.0000000000,,,
6.4785156250,103,113.0000000000,,,
6.4804687500,103,138.0000000000,,,
6.4824218750,103,138.0000000000,,,
6.4843750000,103,155.0000000000,,,
6.4863281250,103,154.0000000000,,,
6.4882812500,103,118.0000000000,,,
6.4902343750,103,121.0000000000,,,
6.4921875000,103,156.0000000000,,,
6.4941406250,103,118.0000000000,,,
6.4960937500,103,42.0000000000,,,
6.4980468750,103,49.0000000000,,,
6.5000000000,104,84.0000000000,,,
6.5019531250,104,88.0000000000,,,
6.5039062500,104,77.0000000000,,,
6.5058593750,104,82.0000000000,,,
6.5078125000,104,90.0000000000,,,
6.5097656250,104,86.0000000000,,,
6.5117187500,104,67.0000000000,,,
6.5136718750,104,71.0000000000,,,
6.5156250000,104,99.0000000000,,,
6.5175781250,104,92.0000000000,,,
6.5195312500,104,26.0000000000,,,
6.5214843750,104,-21.0000000000,,,
6.5234375000,104,6.0000000000,,,
6.5253906250,104,67.0000000000,,,
6.5273437500,104,90.0000000000,,,
6.5292968750,104,87.0000000000,,,
6.5312500000,104,55.0000000000,,,
6.5332031250,104,18.0000000000,,,
6.5351562500,104,4.0000000000,,,
6.5371093750,104,2.0000000000,,,
6.5390625000,104,-20.0000000000,,,
6.5410156250,104,-61.0000000000,,,
6.5429687500,104,-87.0000000000,,,
6.5449218750,104,-86.0000000000,,,
6.5468750000,104,-86.0000000000,,,
6.5488281250,104,-114.0000000000,,,
6.5507812500,104,-147.0000000000,,,
6.5527343750,104,-132.0000000000,,,
6.5546875000,104,-76.0000000000,,,
6.5566406250,104,-39.0000000000,,,
6.5585937500,104,-51.0000000000,,,
6.5605468750,104,-98.0000000000,,,
6.5625000000,105,-102.0000000000,,,
6.5644531250,105,-68.0000000000,,,
6.5664062500,105,-42.0000000000,,,
6.5683593750,105,-39.0000000000,,,
6.5703125000,105,1.0000000000,,,
6.5722656250,105,54.0000000000,,,
6.5742187500,105,85.0000000000,,,
6.5761718750,105,92.0000000000,,,
6.5781250000,105,89.0000000000,,,
6.5800781250,105,97.0000000000,,,
6.5820312500,105,100.0000000000,,,
6.5839843750,105,91.0000000000,,,
6.5859375000,105,83.0000000000,,,
6.5878906250,105,74.0000000000,,,
6.5898437500,105,71.0000000000,,,
6.5917968750,105,89.0000000000,,,
6.5937500000,105,104.0000000000,33552,6.5937500000,0.0000000000
6.5957031250,105,99.0000000000,,,
6.5976562500,105,85.0000000000,,,
6.5996093750,105,70.0000000000,,,
6.6015625000,105,66.0000000000,,,
6.6035156250,105,49.0000000000,,,
6.6054687500,105,9.0000000000,,,
6.6074218750,105,2.0000000000,,,
6.6093750000,105,5.0000000000,,,
6.6113281250,105,24.0000000000,,,
6.6132812500,105,44.0000000000,,,
6.6152343750,105,54.0000000000,,,
6.6171875000,105,73.0000000000,,,
6.6191406250,105,67.0000000000,,,
6.6210937500,105,54.0000000000,,,
6.6230468750,105,54.0000000000,,,
6.6250000000,106,42.0000000000,,,
6.6269531250,106,55.0000000000,,,
6.6289062500,106,84.0000000000,,,
6.6308593750,106,112.0000000000,,,
6.6328125000,106,138.0000000000,,,
6.6347656250,106,139.0000000000,,,
6.6367187500,106,84.0000000000,,,
6.6386718750,106,42.0000000000,,,
6.6406250000,106,45.0000000000,,,
6.6425781250,106,66.0000000000,,,
6.6445312500,106,56.0000000000,,,
6.6464843750,106,39.0000000000,,,
6.6484375000,106,50.0000000000,,,
6.6503906250,106,73.0000000000,,,
6.6523437500,106,60.0000000000,,,
6.6542968750,106,27.0000000000,,,
6.6562500000,106,22.0000000000,,,
6.6582031250,106,70.0000000000,,,
6.6601562500,106,116.0000000000,,,
6.6621093750,106,123.0000000000,,,
6.6640625000,106,90.0000000000,,,
6.6660156250,106,42.0000000000,,,
6.6679687500,106,16.0000000000,,,
6.6699218750,106,45.0000000000,,,
6.6718750000,106,90.0000000000,,,
6.6738281250,106,85.0000000000,,,
6.6757812500,106,43.0000000000,,,
6.6777343750,106,26.0000000000,,,
6.6796875000,106,17.0000000000,,,
6.6816406250,106,6.0000000000,,,
6.6835937500,106,24.0000000000,,,
6.6855468750,106,51.0000000000,,,
6.6875000000,107,89.0000000000,,,
6.6894531250,107,130.0000000000,,,
6.6914062500,107,152.0000000000,,,
6.6933593750,107,169.0000000000,,,
6.6953125000,107,150.0000000000,,,
6.6972656250,107,118.0000000000,,,
6.6992187500,107,113.0000000000,,,
6.7011718750,107,112.0000000000,,,
6.7031250000,107,107.0000000000,,,
6.7050781250,107,69.0000000000,,,
6.7070312500,107,26.0000000000,,,
6.7089843750,107,32.0000000000,,,
6.7109375000,107,84.0000000000,,,
6.7128906250,107,139.0000000000,,,
6.7148437500,107,167.0000000000,,,
6.7167968750,107,179.0000000000,,,
6.7187500000,107,173.0000000000,,,
6.7207031250,107,164.0000000000,,,
6.7226562500,107,139.0000000000,,,
6.7246093750,107,134.0000000000,,,
6.7265625000,107,104.0000000000,,,
6.7285156250,107,72.0000000000,,,
6.7304687500,107,68.0000000000,,,
6.7324218750,107,58.0000000000,,,
6.7343750000,107,72.0000000000,,,
6.7363281250,107,86.0000000000,,,
6.7382812500,107,75.0000000000,,,
6.7402343750,107,60.0000000000,,,
6.7421875000,107,52.0000000000,,,
6.7441406250,107,64.0000000000,,,
6.7460937500,107,38.0000000000,,,
6.7480468750,107,-8.0000000000,,,
6.7500000000,108,6.0000000000,,,
6.7519531250,108,55.0000000000,,,
6.7539062500,108,68.0000000000,,,
6.7558593750,108,71.0000000000,,,
6.7578125000,108,80.0000000000,,,
6.7597656250,108,81.0000000000,,,
6.7617187500,108,74.0000000000,,,
6.7636718750,108,58.0000000000,,,
6.7656250000,108,35.0000000000,,,
6.7675781250,108,8.0000000000,,,
6.7695312500,108,-10.0000000000,,,
6.7714843750,108,-33.0000000000,,,
6.7734375000,108,-41.0000000000,,,
6.7753906250,108,-30.0000000000,,,
6.7773437500,108,-10.0000000000,,,
6.7792968750,108,-10.0000000000,,,
6.7812500000,108,-7.0000000000,,,
6.7832031250,108,32.0000000000,,,
6.7851562500,108,50.0000000000,,,
6.7871093750,108,8.0000000000,,,
6.7890625000,108,-20.0000000000,,,
6.7910156250,108,2.0000000000,,,
6.7929687500,108,32.0000000000,,,
6.7949218750,108,42.0000000000,,,
6.7968750000,108,43.0000000000,,,
6.7988281250,108,67.0000000000,,,
6.8007812500,108,91.0000000000,,,
6.8027343750,108,105.0000000000,,,
6.8046875000,108,112.0000000000,,,
6.8066406250,108,89.0000000000,,,
6.8085937500,108,66.0000000000,,,
6.8105468750,108,37.0000000000,,,
6.8125000000,109,10.0000000000,,,
6.8144531250,109,1.0000000000,,,
6.8164062500,109,-6.0000000000,,,
6.8183593750,109,3.0000000000,,,
6.8203125000,109,12.0000000000,,,
6.8222656250,109,-6.0000000000,,,
6.8242187500,109,-43.0000000000,,,
6.8261718750,109,-49.0000000000,,,
6.8281250000,109,-12.0000000000,,,
6.8300781250,109,26.0000000000,,,
6.8320312500,109,24.0000000000,,,
6.8339843750,109,-10.0000000000,,,
6.8359375000,109,1.0000000000,,,
6.8378906250,109,38.0000000000,,,
6.8398437500,109,49.0000000000,,,
6.8417968750,109,48.0000000000,,,
6.8437500000,109,55.0000000000,,,
6.8457031250,109,86.0000000000,,,
6.8476562500,109,122.0000000000,,,
6.8496093750,109,146.0000000000,,,
6.8515625000,109,131.0000000000,,,
6.8535156250,109,89.0000000000,,,
6.8554687500,109,38.0000000000,,,
6.8574218750,109,17.0000000000,,,
6.8593750000,109,33.0000000000,,,
6.8613281250,109,50.0000000000,,,
6.8632812500,109,67.0000000000,,,
6.8652343750,109,73.0000000000,,,
6.8671875000,109,68.0000000000,,,
6.8691406250,109,68.0000000000,,,
6.8710937500,109,104.0000000000,,,
6.8730468750,109,134.0000000000,,,
6.8750000000,110,105.0000000000,,,
6.8769531250,110,74.0000000000,,,
6.8789062500,110,54.0000000000,,,
6.8808593750,110,29.0000000000,,,
6.8828125000,110,6.0000000000,,,
6.8847656250,110,-14.0000000000,,,
6.8867187500,110,-54.0000000000,,,
6.8886718750,110,-65.0000000000,,,
6.8906250000,110,-34.0000000000,,,
6.8925781250,110,-25.0000000000,,,
6.8945312500,110,-41.0000000000,,,
6.8964843750,110,-46.0000000000,,,
6.8984375000,110,-22.0000000000,,,
6.9003906250,110,18.0000000000,,,
6.9023437500,110,40.0000000000,,,
6.9042968750,110,23.0000000000,,,
6.9062500000,110,-4.0000000000,,,
6.9082031250,110,2.0000000000,,,
6.9101562500,110,-7.0000000000,,,
6.9121093750,110,-37.0000000000,,,
6.9140625000,110,-61.0000000000,,,
6.9160156250,110,-72.0000000000,,,
6.9179687500,110,-72.0000000000,,,
6.9199218750,110,-53.0000000000,,,
6.9218750000,110,-26.0000000000,,,
6.9238281250,110,-21.0000000000,,,
6.9257812500,110,-34.0000000000,,,
