Time:512Hz,Epoch,Electrode,Event Id,Event Date,Event Duration
0.0000000000,0,83.0000000000,,,
0.0019531250,0,82.0000000000,,,
0.0039062500,0,102.0000000000,,,
0.0058593750,0,108.0000000000,,,
0.0078125000,0,114.0000000000,,,
0.0097656250,0,116.0000000000,,,
0.0117187500,0,100.0000000000,,,
0.0136718750,0,81.0000000000,,,
0.0156250000,0,54.0000000000,,,
0.0175781250,0,48.0000000000,,,
0.0195312500,0,82.0000000000,,,
0.0214843750,0,115.0000000000,,,
0.0234375000,0,124.0000000000,,,
0.0253906250,0,108.0000000000,,,
0.0273437500,0,91.0000000000,,,
0.0292968750,0,108.0000000000,,,
0.0312500000,0,137.0000000000,,,
0.0332031250,0,156.0000000000,,,
0.0351562500,0,198.0000000000,,,
0.0371093750,0,244.0000000000,,,
0.0390625000,0,245.0000000000,,,
0.0410156250,0,213.0000000000,,,
0.0429687500,0,198.0000000000,,,
0.0449218750,0,243.0000000000,,,
0.0468750000,0,316.0000000000,,,
0.0488281250,0,348.0000000000,,,
0.0507812500,0,316.0000000000,,,
0.0527343750,0,245.0000000000,,,
0.0546875000,0,196.0000000000,,,
0.0566406250,0,201.0000000000,,,
0.0585937500,0,231.0000000000,,,
0.0605468750,0,249.0000000000,,,
0.0625000000,1,233.0000000000,,,
0.0644531250,1,200.0000000000,,,
0.0664062500,1,163.0000000000,,,
0.0683593750,1,124.0000000000,,,
0.0703125000,1,103.0000000000,,,
0.0722656250,1,90.0000000000,,,
0.0742187500,1,106.0000000000,,,
0.0761718750,1,137.0000000000,,,
0.0781250000,1,136.0000000000,,,
0.0800781250,1,96.0000000000,,,
0.0820312500,1,49.0000000000,,,
0.0839843750,1,18.0000000000,,,
0.0859375000,1,-6.0000000000,,,
0.0878906250,1,-30.0000000000,,,
0.0898437500,1,-37.0000000000,,,
0.0917968750,1,-33.0000000000,,,
0.0937500000,1,-26.0000000000,,,
0.0957031250,1,-13.0000000000,,,
0.0976562500,1,21.0000000000,,,
0.0996093750,1,83.0000000000,,,
0.1015625000,1,105.0000000000,,,
0.1035156250,1,74.0000000000,,,
0.1054687500,1,89.0000000000,,,
0.1074218750,1,152.0000000000,,,
0.1093750000,1,146.0000000000,,,
0.1113281250,1,73.0000000000,,,
0.1132812500,1,-5.0000000000,,,
0.1152343750,1,-88.0000000000,,,
0.1171875000,1,-67.0000000000,,,
0.1191406250,1,39.0000000000,,,
0.1210937500,1,75.0000000000,,,
0.1230468750,1,65.0000000000,,,
0.1250000000,2,64.0000000000,,,
0.1269531250,2,81.0000000000,,,
0.1289062500,2,72.0000000000,,,
0.1308593750,2,-12.0000000000,,,
0.1328125000,2,-86.0000000000,,,
0.1347656250,2,-75.0000000000,,,
0.1367187500,2,-26.0000000000,,,
0.1386718750,2,-17.0000000000,,,
0.1406250000,2,-72.0000000000,,,
0.1425781250,2,-85.0000000000,,,
0.1445312500,2,-1.0000000000,,,
0.1464843750,2,-13.0000000000,,,
0.1484375000,2,-146.0000000000,,,
0.1503906250,2,-206.0000000000,,,
0.1523437500,2,-182.0000000000,,,
0.1542968750,2,-168.0000000000,,,
0.1562500000,2,-199.0000000000,,,
0.1582031250,2,-189.0000000000,,,
0.1601562500,2,-151.0000000000,,,
0.1621093750,2,-115.0000000000,,,
0.1640625000,2,-69.0000000000,,,
0.1660156250,2,-13.0000000000,,,
0.1679687500,2,59.0000000000,,,
0.1699218750,2,89.0000000000,,,
0.1718750000,2,22.0000000000,,,
0.1738281250,2,-65.0000000000,,,
0.1757812500,2,-72.0000000000,,,
0.1777343750,2,-8.0000000000,,,
0.1796875000,2,60.0000000000,,,
0.1816406250,2,-34.0000000000,,,
0.1835937500,2,-200.0000000000,,,
0.1855468750,2,-236.0000000000,,,
0.1875000000,3,-196.0000000000,,,
0.1894531250,3,-204.0000000000,,,
0.1914062500,3,-173.0000000000,,,
0.1933593750,3,-129.0000000000,,,
0.1953125000,3,-104.0000000000,,,
0.1972656250,3,-34.0000000000,,,
0.1992187500,3,80.0000000000,,,
0.2011718750,3,244.0000000000,,,
0.2031250000,3,343.0000000000,,,
0.2050781250,3,288.0000000000,,,
0.2070312500,3,139.0000000000,,,
0.2089843750,3,83.0000000000,,,
0.2109375000,3,252.0000000000,,,
0.2128906250,3,354.0000000000,,,
0.2148437500,3,466.0000000000,,,
0.2167968750,3,379.0000000000,,,
0.2187500000,3,121.0000000000,,,
0.2207031250,3,-157.0000000000,,,
0.2226562500,3,-305.0000000000,,,
0.2246093750,3,-198.0000000000,,,
0.2265625000,3,70.0000000000,,,
0.2285156250,3,268.0000000000,,,
0.2304687500,3,88.0000000000,,,
0.2324218750,3,-379.0000000000,,,
0.2343750000,3,-566.0000000000,,,
0.2363281250,3,-408.0000000000,,,
0.2382812500,3,-151.0000000000,,,
0.2402343750,3,-35.0000000000,,,
0.2421875000,3,-2.0000000000,,,
0.2441406250,3,219.0000000000,,,
0.2460937500,3,282.0000000000,,,
0.2480468750,3,89.0000000000,,,
0.2500000000,4,49.0000000000,,,
0.2519531250,4,138.0000000000,,,
0.2539062500,4,369.0000000000,,,
0.2558593750,4,594.0000000000,,,
0.2578125000,4,395.0000000000,,,
0.2597656250,4,-58.0000000000,,,
0.2617187500,4,-344.0000000000,,,
0.2636718750,4,-114.0000000000,,,
0.2656250000,4,106.0000000000,,,
0.2675781250,4,-104.0000000000,,,
0.2695312500,4,-317.0000000000,,,
0.2714843750,4,-293.0000000000,,,
0.2734375000,4,-264.0000000000,,,
0.2753906250,4,-321.0000000000,,,
0.2773437500,4,-327.0000000000,,,
0.2792968750,4,-249.0000000000,,,
0.2812500000,4,-215.0000000000,,,
0.2832031250,4,-301.0000000000,,,
0.2851562500,4,-179.0000000000,,,
0.2871093750,4,-10.0000000000,,,
0.2890625000,4,-5.0000000000,,,
0.2910156250,4,-172.0000000000,,,
0.2929687500,4,-332.0000000000,,,
0.2949218750,4,-386.0000000000,,,
0.2968750000,4,-354.0000000000,,,
0.2988281250,4,-332.0000000000,,,
0.3007812500,4,-300.0000000000,,,
0.3027343750,4,-242.0000000000,,,
0.3046875000,4,-197.0000000000,,,
0.3066406250,4,-178.0000000000,,,
0.3085937500,4,-166.0000000000,,,
0.3105468750,4,-170.0000000000,,,
0.3125000000,5,-171.0000000000,,,
0.3144531250,5,-89.0000000000,,,
0.3164062500,5,-57.0000000000,,,
0.3183593750,5,-94.0000000000,,,
0.3203125000,5,-85.0000000000,,,
0.3222656250,5,-59.0000000000,,,
0.3242187500,5,-30.0000000000,,,
0.3261718750,5,-13.0000000000,,,
0.3281250000,5,-36.0000000000,,,
0.3300781250,5,-92.0000000000,,,
0.3320312500,5,-134.0000000000,,,
0.3339843750,5,-122.0000000000,,,
0.3359375000,5,-71.0000000000,,,
0.3378906250,5,-10.0000000000,,,
0.3398437500,5,26.0000000000,,,
0.3417968750,5,17.0000000000,,,
0.3437500000,5,-17.0000000000,,,
0.3457031250,5,-40.0000000000,,,
0.3476562500,5,-46.0000000000,,,
0.3496093750,5,-58.0000000000,,,
0.3515625000,5,-56.0000000000,,,
0.3535156250,5,-49.0000000000,,,
0.3554687500,5,-28.0000000000,,,
0.3574218750,5,-29.0000000000,,,
0.3593750000,5,-23.0000000000,,,
0.3613281250,5,17.0000000000,,,
0.3632812500,5,44.0000000000,,,
0.3652343750,5,32.0000000000,,,
0.3671875000,5,7.0000000000,,,
0.3691406250,5,17.0000000000,,,
0.3710937500,5,49.0000000000,,,
0.3730468750,5,65.0000000000,,,
0.3750000000,6,60.0000000000,,,
0.3769531250,6,56.0000000000,,,
0.3789062500,6,27.0000000000,,,
0.3808593750,6,-3.0000000000,,,
0.3828125000,6,-2.0000000000,,,
0.3847656250,6,21.0000000000,,,
0.3867187500,6,22.0000000000,,,
0.3886718750,6,8.0000000000,,,
0.3906250000,6,0.0000000000,,,
0.3925781250,6,-19.0000000000,,,
0.3945312500,6,-33.0000000000,,,
0.3964843750,6,-27.0000000000,,,
0.3984375000,6,-4.0000000000,,,
0.4003906250,6,12.0000000000,,,
0.4023437500,6,19.0000000000,,,
0.4042968750,6,56.0000000000,,,
0.4062500000,6,115.0000000000,,,
0.4082031250,6,125.0000000000,,,
0.4101562500,6,120.0000000000,,,
0.4121093750,6,128.0000000000,,,
0.4140625000,6,135.0000000000,,,
0.4160156250,6,121.0000000000,,,
0.4179687500,6,100.0000000000,,,
0.4199218750,6,103.0000000000,,,
0.4218750000,6,150.0000000000,,,
0.4238281250,6,179.0000000000,,,
0.4257812500,6,170.0000000000,,,
0.4277343750,6,146.0000000000,,,
0.4296875000,6,116.0000000000,,,
0.4316406250,6,83.0000000000,,,
0.4335937500,6,65.0000000000,,,
0.4355468750,6,64.0000000000,,,
0.4375000000,7,91.0000000000,,,
0.4394531250,7,123.0000000000,,,
0.4414062500,7,137.0000000000,,,
0.4433593750,7,141.0000000000,,,
0.4453125000,7,129.0000000000,,,
0.4472656250,7,131.0000000000,,,
0.4492187500,7,156.0000000000,,,
0.4511718750,7,172.0000000000,,,
0.4531250000,7,154.0000000000,,,
0.4550781250,7,105.0000000000,,,
0.4570312500,7,66.0000000000,,,
0.4589843750,7,60.0000000000,,,
0.4609375000,7,96.0000000000,,,
0.4628906250,7,137.0000000000,,,
0.4648437500,7,148.0000000000,,,
0.4667968750,7,164.0000000000,33552,0.4667968750,0.0000000000
0.4687500000,7,212.0000000000,,,
0.4707031250,7,248.0000000000,,,
0.4726562500,7,277.0000000000,,,
0.4746093750,7,305.0000000000,,,
0.4765625000,7,276.0000000000,,,
0.4785156250,7,208.0000000000,,,
0.4804687500,7,132.0000000000,,,
0.4824218750,7,77.0000000000,,,
0.4843750000,7,67.0000000000,,,
0.4863281250,7,75.0000000000,,,
0.4882812500,7,91.0000000000,,,
0.4902343750,7,133.0000000000,,,
0.4921875000,7,162.0000000000,,,
0.4941406250,7,144.0000000000,,,
0.4960937500,7,124.0000000000,,,
0.4980468750,7,122.0000000000,,,
0.5000000000,8,83.0000000000,,,
0.5019531250,8,44.0000000000,,,
0.5039062500,8,49.0000000000,,,
0.5058593750,8,75.0000000000,,,
0.5078125000,8,118.0000000000,,,
0.5097656250,8,150.0000000000,,,
0.5117187500,8,153.0000000000,,,
0.5136718750,8,168.0000000000,,,
0.5156250000,8,198.0000000000,,,
0.5175781250,8,231.0000000000,,,
0.5195312500,8,257.0000000000,,,
0.5214843750,8,274.0000000000,,,
0.5234375000,8,278.0000000000,,,
0.5253906250,8,260.0000000000,,,
0.5273437500,8,197.0000000000,,,
0.5292968750,8,130.0000000000,,,
0.5312500000,8,124.0000000000,,,
0.5332031250,8,164.0000000000,,,
0.5351562500,8,185.0000000000,,,
0.5371093750,8,164.0000000000,,,
0.5390625000,8,152.0000000000,,,
0.5410156250,8,152.0000000000,,,
0.5429687500,8,136.0000000000,,,
0.5449218750,8,124.0000000000,,,
0.5468750000,8,148.0000000000,,,
0.5488281250,8,149.0000000000,,,
0.5507812500,8,131.0000000000,,,
0.5527343750,8,140.0000000000,,,
0.5546875000,8,152.0000000000,,,
0.5566406250,8,132.0000000000,,,
0.5585937500,8,118.0000000000,,,
0.5605468750,8,137.0000000000,,,
0.5625000000,9,156.0000000000,,,
0.5644531250,9,144.0000000000,,,
0.5664062500,9,121.0000000000,,,
0.5683593750,9,144.0000000000,,,
0.5703125000,9,220.0000000000,,,
0.5722656250,9,267.0000000000,,,
0.5742187500,9,241.0000000000,,,
0.5761718750,9,165.0000000000,,,
0.5781250000,9,130.0000000000,,,
0.5800781250,9,138.0000000000,,,
0.5820312500,9,182.0000000000,,,
0.5839843750,9,224.0000000000,,,
0.5859375000,9,220.0000000000,,,
0.5878906250,9,181.0000000000,,,
0.5898437500,9,131.0000000000,,,
0.5917968750,9,134.0000000000,,,
0.5937500000,9,185.0000000000,,,
0.5957031250,9,188.0000000000,,,
0.5976562500,9,144.0000000000,,,
0.5996093750,9,101.0000000000,,,
0.6015625000,9,65.0000000000,,,
0.6035156250,9,11.0000000000,,,
0.6054687500,9,0.0000000000,,,
0.6074218750,9,32.0000000000,,,
0.6093750000,9,70.0000000000,,,
0.6113281250,9,108.0000000000,,,
0.6132812500,9,114.0000000000,,,
0.6152343750,9,74.0000000000,,,
0.6171875000,9,54.0000000000,,,
0.6191406250,9,56.0000000000,,,
0.6210937500,9,52.0000000000,,,
0.6230468750,9,36.0000000000,,,
0.6250000000,10,39.0000000000,,,
0.6269531250,10,64.0000000000,,,
0.6289062500,10,73.0000000000,,,
0.6308593750,10,74.0000000000,,,
0.6328125000,10,66.0000000000,,,
0.6347656250,10,26.0000000000,,,
0.6367187500,10,17.0000000000,,,
0.6386718750,10,35.0000000000,,,
0.6406250000,10,52.0000000000,,,
0.6425781250,10,64.0000000000,,,
0.6445312500,10,58.0000000000,,,
0.6464843750,10,45.0000000000,,,
0.6484375000,10,38.0000000000,,,
0.6503906250,10,58.0000000000,,,
0.6523437500,10,74.0000000000,,,
0.6542968750,10,74.0000000000,,,
0.6562500000,10,64.0000000000,,,
0.6582031250,10,59.0000000000,,,
0.6601562500,10,82.0000000000,,,
0.6621093750,10,80.0000000000,,,
0.6640625000,10,57.0000000000,,,
0.6660156250,10,68.0000000000,,,
0.6679687500,10,116.0000000000,,,
0.6699218750,10,146.0000000000,,,
0.6718750000,10,129.0000000000,,,
0.6738281250,10,85.0000000000,,,
0.6757812500,10,49.0000000000,,,
0.6777343750,10,37.0000000000,,,
0.6796875000,10,25.0000000000,,,
0.6816406250,10,24.0000000000,,,
0.6835937500,10,44.0000000000,,,
0.6855468750,10,66.0000000000,,,
0.6875000000,11,72.0000000000,,,
0.6894531250,11,80.0000000000,,,
0.6914062500,11,86.0000000000,,,
0.6933593750,11,99.0000000000,,,
0.6953125000,11,96.0000000000,,,
0.6972656250,11,67.0000000000,,,
0.6992187500,11,41.0000000000,,,
0.7011718750,11,-4.0000000000,,,
0.7031250000,11,-55.0000000000,,,
0.7050781250,11,-59.0000000000,,,
0.7070312500,11,-28.0000000000,,,
0.7089843750,11,-29.0000000000,,,
0.7109375000,11,-42.0000000000,,,
0.7128906250,11,-37.0000000000,,,
0.7148437500,11,-22.0000000000,,,
0.7167968750,11,1.0000000000,,,
0.7187500000,11,5.0000000000,,,
0.7207031250,11,1.0000000000,,,
0.7226562500,11,19.0000000000,,,
0.7246093750,11,55.0000000000,,,
0.7265625000,11,67.0000000000,,,
0.7285156250,11,48.0000000000,,,
0.7304687500,11,11.0000000000,,,
0.7324218750,11,-8.0000000000,,,
0.7343750000,11,1.0000000000,,,
0.7363281250,11,43.0000000000,,,
0.7382812500,11,91.0000000000,,,
0.7402343750,11,120.0000000000,,,
0.7421875000,11,132.0000000000,,,
0.7441406250,11,140.0000000000,,,
0.7460937500,11,140.0000000000,,,
0.7480468750,11,145.0000000000,,,
0.7500000000,12,140.0000000000,,,
0.7519531250,12,131.0000000000,,,
0.7539062500,12,120.0000000000,,,
0.7558593750,12,113.0000000000,,,
0.7578125000,12,105.0000000000,,,
0.7597656250,12,98.0000000000,,,
0.7617187500,12,89.0000000000,,,
0.7636718750,12,91.0000000000,,,
0.7656250000,12,92.0000000000,,,
0.7675781250,12,92.0000000000,,,
0.7695312500,12,99.0000000000,,,
0.7714843750,12,105.0000000000,,,
0.7734375000,12,117.0000000000,,,
0.7753906250,12,104.0000000000,,,
0.7773437500,12,84.0000000000,,,
0.7792968750,12,70.0000000000,,,
0.7812500000,12,58.0000000000,,,
0.7832031250,12,48.0000000000,,,
0.7851562500,12,45.0000000000,,,
0.7871093750,12,53.0000000000,,,
0.7890625000,12,43.0000000000,,,
0.7910156250,12,26.0000000000,,,
0.7929687500,12,8.0000000000,,,
0.7949218750,12,22.0000000000,,,
0.7968750000,12,45.0000000000,,,
0.7988281250,12,60.0000000000,,,
0.8007812500,12,57.0000000000,,,
0.8027343750,12,56.0000000000,,,
0.8046875000,12,57.0000000000,,,
0.8066406250,12,64.0000000000,,,
0.8085937500,12,65.0000000000,,,
0.8105468750,12,50.0000000000,,,
0.8125000000,13,29.0000000000,,,
0.8144531250,13,24.0000000000,,,
0.8164062500,13,40.0000000000,,,
0.8183593750,13,51.0000000000,,,
0.8203125000,13,55.0000000000,,,
0.8222656250,13,64.0000000000,,,
0.8242187500,13,81.0000000000,,,
0.8261718750,13,92.0000000000,,,
0.8281250000,13,83.0000000000,,,
0.8300781250,13,69.0000000000,,,
0.8320312500,13,74.0000000000,,,
0.8339843750,13,76.0000000000,,,
0.8359375000,13,56.0000000000,,,
0.8378906250,13,32.0000000000,,,
0.8398437500,13,8.0000000000,,,
0.8417968750,13,-20.0000000000,,,
0.8437500000,13,-43.0000000000,,,
0.8457031250,13,-51.0000000000,,,
0.8476562500,13,-35.0000000000,,,
0.8496093750,13,-13.0000000000,,,
0.8515625000,13,-9.0000000000,,,
0.8535156250,13,-28.0000000000,,,
0.8554687500,13,-36.0000000000,,,
0.8574218750,13,-18.0000000000,,,
0.8593750000,13,-8.0000000000,,,
0.8613281250,13,-22.0000000000,,,
0.8632812500,13,-35.0000000000,,,
0.8652343750,13,-43.0000000000,,,
0.8671875000,13,-65.0000000000,,,
0.8691406250,13,-81.0000000000,,,
0.8710937500,13,-74.0000000000,,,
0.8730468750,13,-66.0000000000,,,
0.8750000000,14,-41.0000000000,,,
0.8769531250,14,2.0000000000,,,
0.8789062500,14,16.0000000000,,,
0.8808593750,14,-10.0000000000,,,
0.8828125000,14,-55.0000000000,,,
0.8847656250,14,-76.0000000000,,,
0.8867187500,14,-66.0000000000,,,
0.8886718750,14,-50.0000000000,,,
0.8906250000,14,-61.0000000000,,,
0.8925781250,14,-98.0000000000,,,
0.8945312500,14,-148.0000000000,,,
0.8964843750,14,-211.0000000000,,,
0.8984375000,14,-230.0000000000,,,
0.9003906250,14,-173.0000000000,,,
0.9023437500,14,-33.0000000000,,,
0.9042968750,14,76.0000000000,,,
0.9062500000,14,82.0000000000,,,
0.9082031250,14,36.0000000000,,,
0.9101562500,14,7.0000000000,,,
0.9121093750,14,40.0000000000,,,
0.9140625000,14,80.0000000000,,,
0.9160156250,14,65.0000000000,,,
0.9179687500,14,33.0000000000,,,
0.9199218750,14,13.0000000000,,,
0.9218750000,14,-5.0000000000,,,
0.9238281250,14,-12.0000000000,,,
0.9257812500,14,-10.0000000000,,,
0.9277343750,14,17.0000000000,,,
0.9296875000,14,73.0000000000,,,
0.9316406250,14,81.0000000000,,,
0.9335937500,14,2.0000000000,,,
0.9355468750,14,-67.0000000000,,,
0.9375000000,15,-104.0000000000,,,
0.9394531250,15,-133.0000000000,,,
0.9414062500,15,-99.0000000000,,,
0.9433593750,15,-82.0000000000,,,
0.9453125000,15,-141.0000000000,,,
0.9472656250,15,-195.0000000000,,,
0.9492187500,15,-202.0000000000,,,
0.9511718750,15,-180.0000000000,,,
0.9531250000,15,-152.0000000000,,,
0.9550781250,15,-145.0000000000,,,
0.9570312500,15,-136.0000000000,,,
0.9589843750,15,-110.0000000000,,,
0.9609375000,15,-116.0000000000,,,
0.9628906250,15,-117.0000000000,,,
0.9648437500,15,-87.0000000000,,,
0.9667968750,15,-69.0000000000,,,
0.9687500000,15,-78.0000000000,,,
0.9707031250,15,-74.0000000000,,,
0.9726562500,15,-65.0000000000,,,
0.9746093750,15,-94.0000000000,,,
0.9765625000,15,-136.0000000000,,,
0.9785156250,15,-146.0000000000,,,
0.9804687500,15,-108.0000000000,,,
0.9824218750,15,-71.0000000000,,,
0.9843750000,15,-98.0000000000,,,
0.9863281250,15,-138.0000000000,,,
0.9882812500,15,-139.0000000000,,,
0.9902343750,15,-104.0000000000,,,
0.9921875000,15,-73.0000000000,,,
0.9941406250,15,-92.0000000000,,,
0.9960937500,15,-134.0000000000,,,
0.9980468750,15,-142.0000000000,,,
1.0000000000,16,-121.0000000000,,,
1.0019531250,16,-102.0000000000,,,
1.0039062500,16,-78.0000000000,,,
1.0058593750,16,-59.0000000000,,,
1.0078125000,16,-29.0000000000,,,
1.0097656250,16,5.0000000000,,,
1.0117187500,16,33.0000000000,,,
1.0136718750,16,0.0000000000,,,
1.0156250000,16,-38.0000000000,,,
1.0175781250,16,-36.0000000000,,,
1.0195312500,16,-38.0000000000,,,
1.0214843750,16,-56.0000000000,,,
1.0234375000,16,-73.0000000000,,,
1.0253906250,16,-93.0000000000,,,
1.0273437500,16,-97.0000000000,,,
1.0292968750,16,-81.0000000000,,,
1.0312500000,16,-59.0000000000,,,
1.0332031250,16,-36.0000000000,,,
1.0351562500,16,-5.0000000000,,,
1.0371093750,16,2.0000000000,,,
1.0390625000,16,1.0000000000,,,
1.0410156250,16,45.0000000000,,,
1.0429687500,16,89.0000000000,,,
1.0449218750,16,75.0000000000,,,
1.0468750000,16,29.0000000000,,,
1.0488281250,16,10.0000000000,,,
1.0507812500,16,22.0000000000,,,
1.0527343750,16,69.0000000000,,,
1.0546875000,16,117.0000000000,,,
1.0566406250,16,132.0000000000,,,
1.0585937500,16,116.0000000000,,,
1.0605468750,16,102.0000000000,,,
1.0625000000,17,100.0000000000,,,
1.0644531250,17,118.0000000000,,,
1.0664062500,17,129.0000000000,,,
1.0683593750,17,117.0000000000,,,
1.0703125000,17,106.0000000000,,,
1.0722656250,17,98.0000000000,,,
1.0742187500,17,100.0000000000,,,
1.0761718750,17,82.0000000000,,,
1.0781250000,17,-3.0000000000,,,
1.0800781250,17,-91.0000000000,,,
1.0820312500,17,-74.0000000000,,,
1.0839843750,17,17.0000000000,,,
1.0859375000,17,75.0000000000,,,
1.0878906250,17,51.0000000000,,,
1.0898437500,17,17.0000000000,,,
1.0917968750,17,43.0000000000,,,
1.0937500000,17,93.0000000000,,,
1.0957031250,17,125.0000000000,,,
1.0976562500,17,121.0000000000,,,
1.0996093750,17,57.0000000000,,,
1.1015625000,17,-23.0000000000,,,
1.1035156250,17,-27.0000000000,,,
1.1054687500,17,51.0000000000,,,
1.1074218750,17,146.0000000000,,,
1.1093750000,17,169.0000000000,,,
1.1113281250,17,124.0000000000,,,
1.1132812500,17,113.0000000000,,,
1.1152343750,17,144.0000000000,,,
1.1171875000,17,169.0000000000,,,
1.1191406250,17,198.0000000000,,,
1.1210937500,17,160.0000000000,,,
1.1230468750,17,38.0000000000,,,
1.1250000000,18,-24.0000000000,,,
1.1269531250,18,-20.0000000000,,,
1.1289062500,18,3.0000000000,,,
1.1308593750,18,-5.0000000000,,,
1.1328125000,18,-6.0000000000,,,
1.1347656250,18,41.0000000000,,,
1.1367187500,18,124.0000000000,,,
1.1386718750,18,100.0000000000,,,
1.1406250000,18,21.0000000000,,,
1.1425781250,18,-33.0000000000,,,
1.1445312500,18,-27.0000000000,,,
1.1464843750,18,26.0000000000,,,
1.1484375000,18,83.0000000000,,,
1.1503906250,18,150.0000000000,,,
1.1523437500,18,166.0000000000,,,
1.1542968750,18,71.0000000000,,,
1.1562500000,18,75.0000000000,,,
1.1582031250,18,282.0000000000,,,
1.1601562500,18,385.0000000000,,,
1.1621093750,18,258.0000000000,,,
1.1640625000,18,124.0000000000,,,
1.1660156250,18,106.0000000000,,,
1.1679687500,18,135.0000000000,,,
1.1699218750,18,92.0000000000,,,
1.1718750000,18,-5.0000000000,,,
1.1738281250,18,-27.0000000000,,,
1.1757812500,18,20.0000000000,,,
1.1777343750,18,38.0000000000,,,
1.1796875000,18,40.0000000000,,,
1.1816406250,18,36.0000000000,,,
1.1835937500,18,108.0000000000,,,
1.1855468750,18,150.0000000000,,,
1.1875000000,19,150.0000000000,,,
1.1894531250,19,170.0000000000,,,
1.1914062500,19,240.0000000000,,,
1.1933593750,19,309.0000000000,,,
1.1953125000,19,371.0000000000,,,
1.1972656250,19,299.0000000000,,,
1.1992187500,19,98.0000000000,,,
1.2011718750,19,-70.0000000000,,,
1.2031250000,19,-178.0000000000,,,
1.2050781250,19,-186.0000000000,,,
1.2070312500,19,-170.0000000000,,,
1.2089843750,19,-170.0000000000,,,
1.2109375000,19,-243.0000000000,,,
1.2128906250,19,-151.0000000000,,,
1.2148437500,19,183.0000000000,,,
1.2167968750,19,424.0000000000,,,
1.2187500000,19,362.0000000000,,,
1.2207031250,19,66.0000000000,,,
1.2226562500,19,-117.0000000000,,,
1.2246093750,19,11.0000000000,,,
1.2265625000,19,198.0000000000,,,
1.2285156250,19,242.0000000000,,,
1.2304687500,19,331.0000000000,,,
1.2324218750,19,182.0000000000,,,
1.2343750000,19,10.0000000000,,,
1.2363281250,19,16.0000000000,,,
1.2382812500,19,-40.0000000000,,,
1.2402343750,19,-116.0000000000,,,
1.2421875000,19,-130.0000000000,,,
1.2441406250,19,-73.0000000000,,,
1.2460937500,19,-22.0000000000,,,
1.2480468750,19,77.0000000000,,,
1.2500000000,20,385.0000000000,,,
1.2519531250,20,677.0000000000,,,
1.2539062500,20,529.0000000000,,,
1.2558593750,20,278.0000000000,,,
1.2578125000,20,186.0000000000,,,
1.2597656250,20,129.0000000000,,,
1.2617187500,20,34.0000000000,,,
1.2636718750,20,-109.0000000000,,,
1.2656250000,20,-316.0000000000,,,
1.2675781250,20,-262.0000000000,,,
1.2695312500,20,-59.0000000000,,,
1.2714843750,20,-156.0000000000,,,
1.2734375000,20,-162.0000000000,,,
1.2753906250,20,116.0000000000,,,
1.2773437500,20,257.0000000000,,,
1.2792968750,20,101.0000000000,,,
1.2812500000,20,-35.0000000000,,,
1.2832031250,20,-85.0000000000,,,
1.2851562500,20,-122.0000000000,,,
1.2871093750,20,-50.0000000000,,,
1.2890625000,20,90.0000000000,,,
1.2910156250,20,104.0000000000,,,
1.2929687500,20,3.0000000000,,,
1.2949218750,20,-87.0000000000,,,
1.2968750000,20,41.0000000000,,,
1.2988281250,20,85.0000000000,,,
1.3007812500,20,-57.0000000000,,,
1.3027343750,20,-108.0000000000,,,
1.3046875000,20,42.0000000000,,,
1.3066406250,20,186.0000000000,,,
1.3085937500,20,117.0000000000,,,
1.3105468750,20,-41.0000000000,,,
1.3125000000,21,-209.0000000000,,,
1.3144531250,21,-227.0000000000,,,
1.3164062500,21,-156.0000000000,,,
1.3183593750,21,-26.0000000000,,,
1.3203125000,21,134.0000000000,,,
1.3222656250,21,149.0000000000,,,
1.3242187500,21,93.0000000000,,,
1.3261718750,21,86.0000000000,,,
1.3281250000,21,131.0000000000,,,
1.3300781250,21,45.0000000000,,,
1.3320312500,21,-137.0000000000,,,
1.3339843750,21,-216.0000000000,,,
1.3359375000,21,-174.0000000000,,,
1.3378906250,21,-82.0000000000,,,
1.3398437500,21,-17.0000000000,,,
1.3417968750,21,-50.0000000000,,,
1.3437500000,21,-97.0000000000,,,
1.3457031250,21,-76.0000000000,,,
1.3476562500,21,8.0000000000,,,
1.3496093750,21,89.0000000000,,,
1.3515625000,21,45.0000000000,,,
1.3535156250,21,-69.0000000000,,,
1.3554687500,21,-99.0000000000,,,
1.3574218750,21,-56.0000000000,,,
1.3593750000,21,-14.0000000000,,,
1.3613281250,21,13.0000000000,,,
1.3632812500,21,69.0000000000,,,
1.3652343750,21,105.0000000000,,,
1.3671875000,21,86.0000000000,,,
1.3691406250,21,84.0000000000,,,
1.3710937500,21,134.0000000000,,,
1.3730468750,21,182.0000000000,,,
1.3750000000,22,183.0000000000,,,
1.3769531250,22,145.0000000000,,,
1.3789062500,22,88.0000000000,,,
1.3808593750,22,74.0000000000,,,
1.3828125000,22,93.0000000000,,,
1.3847656250,22,104.0000000000,,,
1.3867187500,22,108.0000000000,,,
1.3886718750,22,103.0000000000,,,
1.3906250000,22,98.0000000000,,,
1.3925781250,22,104.0000000000,,,
1.3945312500,22,97.0000000000,,,
1.3964843750,22,103.0000000000,,,
1.3984375000,22,141.0000000000,,,
1.4003906250,22,182.0000000000,,,
1.4023437500,22,201.0000000000,,,
1.4042968750,22,197.0000000000,,,
1.4062500000,22,171.0000000000,,,
1.4082031250,22,135.0000000000,,,
1.4101562500,22,113.0000000000,,,
1.4121093750,22,117.0000000000,,,
1.4140625000,22,134.0000000000,,,
1.4160156250,22,148.0000000000,,,
1.4179687500,22,147.0000000000,,,
1.4199218750,22,119.0000000000,,,
1.4218750000,22,86.0000000000,,,
1.4238281250,22,102.0000000000,,,
1.4257812500,22,136.0000000000,,,
1.4277343750,22,149.0000000000,,,
1.4296875000,22,140.0000000000,,,
1.4316406250,22,115.0000000000,,,
1.4335937500,22,93.0000000000,,,
1.4355468750,22,93.0000000000,,,
1.4375000000,23,93.0000000000,,,
1.4394531250,23,81.0000000000,,,
1.4414062500,23,59.0000000000,,,
1.4433593750,23,42.0000000000,,,
1.4453125000,23,38.0000000000,,,
1.4472656250,23,65.0000000000,,,
1.4492187500,23,101.0000000000,,,
1.4511718750,23,107.0000000000,,,
1.4531250000,23,85.0000000000,,,
1.4550781250,23,60.0000000000,,,
1.4570312500,23,85.0000000000,,,
1.4589843750,23,138.0000000000,,,
1.4609375000,23,167.0000000000,,,
1.4628906250,23,157.0000000000,,,
1.4648437500,23,124.0000000000,,,
1.4667968750,23,105.0000000000,,,
1.4687500000,23,101.0000000000,,,
1.4707031250,23,96.0000000000,,,
1.4726562500,23,98.0000000000,,,
1.4746093750,23,98.0000000000,,,
1.4765625000,23,85.0000000000,,,
1.4785156250,23,38.0000000000,,,
1.4804687500,23,4.0000000000,,,
1.4824218750,23,19.0000000000,,,
1.4843750000,23,33.0000000000,,,
1.4863281250,23,28.0000000000,,,
1.4882812500,23,22.0000000000,,,
1.4902343750,23,-1.0000000000,,,
1.4921875000,23,-58.0000000000,,,
1.4941406250,23,-91.0000000000,,,
1.4960937500,23,-59.0000000000,,,
1.4980468750,23,32.0000000000,,,
1.5000000000,24,113.0000000000,,,
1.5019531250,24,148.0000000000,,,
1.5039062500,24,124.0000000000,,,
1.5058593750,24,128.0000000000,,,
1.5078125000,24,227.0000000000,,,
1.5097656250,24,343.0000000000,,,
1.5117187500,24,386.0000000000,,,
1.5136718750,24,389.0000000000,,,
1.5156250000,24,394.0000000000,,,
1.5175781250,24,400.0000000000,,,
1.5195312500,24,406.0000000000,,,
1.5214843750,24,407.0000000000,,,
1.5234375000,24,407.0000000000,,,
1.5253906250,24,444.0000000000,,,
1.5273437500,24,481.0000000000,,,
1.5292968750,24,457.0000000000,,,
1.5312500000,24,388.0000000000,,,
1.5332031250,24,325.0000000000,,,
1.5351562500,24,315.0000000000,,,
1.5371093750,24,356.0000000000,,,
1.5390625000,24,401.0000000000,,,
1.5410156250,24,407.0000000000,,,
1.5429687500,24,378.0000000000,,,
1.5449218750,24,354.0000000000,,,
1.5468750000,24,348.0000000000,,,
1.5488281250,24,359.0000000000,,,
1.5507812500,24,349.0000000000,,,
1.5527343750,24,304.0000000000,,,
1.5546875000,24,277.0000000000,,,
1.5566406250,24,311.0000000000,,,
1.5585937500,24,344.0000000000,,,
1.5605468750,24,331.0000000000,,,
1.5625000000,25,323.0000000000,,,
1.5644531250,25,339.0000000000,,,
1.5664062500,25,338.0000000000,,,
1.5683593750,25,294.0000000000,,,
1.5703125000,25,253.0000000000,,,
1.5722656250,25,227.0000000000,,,
1.5742187500,25,179.0000000000,,,
1.5761718750,25,101.0000000000,,,
1.5781250000,25,48.0000000000,,,
1.5800781250,25,58.0000000000,,,
1.5820312500,25,72.0000000000,,,
1.5839843750,25,84.0000000000,,,
1.5859375000,25,122.0000000000,,,
1.5878906250,25,122.0000000000,,,
1.5898437500,25,86.0000000000,,,
1.5917968750,25,53.0000000000,,,
1.5937500000,25,-1.0000000000,,,
1.5957031250,25,-54.0000000000,,,
1.5976562500,25,-51.0000000000,,,
1.5996093750,25,-34.0000000000,,,
1.6015625000,25,-51.0000000000,,,
1.6035156250,25,-57.0000000000,,,
1.6054687500,25,-36.0000000000,,,
1.6074218750,25,4.0000000000,,,
1.6093750000,25,43.0000000000,,,
1.6113281250,25,71.0000000000,,,
1.6132812500,25,80.0000000000,,,
1.6152343750,25,33.0000000000,,,
1.6171875000,25,-33.0000000000,,,
1.6191406250,25,-55.0000000000,,,
1.6210937500,25,-25.0000000000,,,
1.6230468750,25,-24.0000000000,,,
1.6250000000,26,-39.0000000000,,,
1.6269531250,26,-44.0000000000,,,
1.6289062500,26,-43.0000000000,,,
1.6308593750,26,-40.0000000000,,,
1.6328125000,26,-17.0000000000,,,
1.6347656250,26,16.0000000000,,,
1.6367187500,26,22.0000000000,,,
1.6386718750,26,11.0000000000,,,
1.6406250000,26,29.0000000000,,,
1.6425781250,26,59.0000000000,,,
1.6445312500,26,69.0000000000,,,
1.6464843750,26,45.0000000000,,,
1.6484375000,26,3.0000000000,,,
1.6503906250,26,-6.0000000000,,,
1.6523437500,26,0.0000000000,,,
1.6542968750,26,-9.0000000000,,,
1.6562500000,26,-13.0000000000,,,
1.6582031250,26,-6.0000000000,,,
1.6601562500,26,-6.0000000000,,,
1.6621093750,26,-14.0000000000,,,
1.6640625000,26,-27.0000000000,,,
1.6660156250,26,-43.0000000000,,,
1.6679687500,26,-39.0000000000,,,
1.6699218750,26,-22.0000000000,,,
1.6718750000,26,-37.0000000000,,,
1.6738281250,26,-44.0000000000,,,
1.6757812500,26,-36.0000000000,,,
1.6777343750,26,-26.0000000000,,,
1.6796875000,26,-38.0000000000,,,
1.6816406250,26,-30.0000000000,,,
1.6835937500,26,-6.0000000000,,,
1.6855468750,26,5.0000000000,,,
1.6875000000,27,1.0000000000,,,
1.6894531250,27,-33.0000000000,,,
1.6914062500,27,-70.0000000000,,,
1.6933593750,27,-101.0000000000,,,
1.6953125000,27,-100.0000000000,,,
1.6972656250,27,-76.0000000000,,,
1.6992187500,27,-77.0000000000,,,
1.7011718750,27,-107.0000000000,,,
1.7031250000,27,-135.0000000000,,,
1.7050781250,27,-125.0000000000,,,
1.7070312500,27,-97.0000000000,,,
1.7089843750,27,-53.0000000000,,,
1.7109375000,27,-24.0000000000,,,
1.7128906250,27,-41.0000000000,,,
1.7148437500,27,-65.0000000000,,,
1.7167968750,27,-54.0000000000,,,
1.7187500000,27,-30.0000000000,,,
1.7207031250,27,-37.0000000000,,,
1.7226562500,27,-58.0000000000,,,
1.7246093750,27,-68.0000000000,,,
1.7265625000,27,-55.0000000000,,,
1.7285156250,27,-24.0000000000,,,
1.7304687500,27,-9.0000000000,,,
1.7324218750,27,-12.0000000000,,,
1.7343750000,27,-26.0000000000,,,
1.7363281250,27,-20.0000000000,,,
1.7382812500,27,20.0000000000,,,
1.7402343750,27,40.0000000000,,,
1.7421875000,27,23.0000000000,,,
1.7441406250,27,11.0000000000,,,
1.7460937500,27,13.0000000000,,,
1.7480468750,27,17.0000000000,,,
1.7500000000,28,6.0000000000,,,
1.7519531250,28,-30.0000000000,,,
1.7539062500,28,-72.0000000000,,,
1.7558593750,28,-71.0000000000,,,
1.7578125000,28,-35.0000000000,,,
1.7597656250,28,10.0000000000,,,
1.7617187500,28,33.0000000000,,,
1.7636718750,28,18.0000000000,,,
1.7656250000,28,-18.0000000000,,,
1.7675781250,28,-42.0000000000,,,
1.7695312500,28,-58.0000000000,,,
1.7714843750,28,-93.0000000000,,,
1.7734375000,28,-119.0000000000,,,
1.7753906250,28,-118.0000000000,,,
1.7773437500,28,-104.0000000000,,,
1.7792968750,28,-78.0000000000,,,
1.7812500000,28,-60.0000000000,,,
1.7832031250,28,-65.0000000000,,,
1.7851562500,28,-65.0000000000,,,
1.7871093750,28,-44.0000000000,,,
1.7890625000,28,-21.0000000000,,,
1.7910156250,28,0.0000000000,,,
1.7929687500,28,11.0000000000,,,
1.7949218750,28,19.0000000000,,,
1.7968750000,28,22.0000000000,,,
1.7988281250,28,-1.0000000000,,,
1.8007812500,28,-13.0000000000,,,
1.8027343750,28,18.0000000000,,,
1.8046875000,28,67.0000000000,,,
1.8066406250,28,71.0000000000,,,
1.8085937500,28,48.0000000000,,,
1.8105468750,28,24.0000000000,,,
1.8125000000,29,24.0000000000,,,
1.8144531250,29,34.0000000000,,,
1.8164062500,29,33.0000000000,,,
1.8183593750,29,7.0000000000,,,
1.8203125000,29,10.0000000000,,,
1.8222656250,29,44.0000000000,,,
1.8242187500,29,54.0000000000,,,
1.8261718750,29,44.0000000000,,,
1.8281250000,29,-1.0000000000,,,
1.8300781250,29,-26.0000000000,,,
1.8320312500,29,21.0000000000,,,
1.8339843750,29,57.0000000000,,,
1.8359375000,29,52.0000000000,,,
1.8378906250,29,12.0000000000,,,
1.8398437500,29,-35.0000000000,33553,1.8398437500,0.0019531250
1.8417968750,29,-35.0000000000,33554,1.8417968750,0.0000000000
1.8437500000,29,-57.0000000000,,,
1.8457031250,29,-38.0000000000,,,
1.8476562500,29,-2.0000000000,,,
1.8496093750,29,21.0000000000,,,
1.8515625000,29,7.0000000000,,,
1.8535156250,29,-30.0000000000,,,
1.8554687500,29,-60.0000000000,,,
1.8574218750,29,-71.0000000000,,,
1.8593750000,29,-59.0000000000,,,
1.8613281250,29,-53.0000000000,,,
1.8632812500,29,-49.0000000000,,,
1.8652343750,29,-66.0000000000,,,
1.8671875000,29,-85.0000000000,,,
1.8691406250,29,-85.0000000000,,,
1.8710937500,29,-93.0000000000,,,
1.8730468750,29,-122.0000000000,,,
1.8750000000,30,-139.0000000000,,,
1.8769531250,30,-147.0000000000,,,
1.8789062500,30,-150.0000000000,,,
1.8808593750,30,-137.0000000000,,,
1.8828125000,30,-137.0000000000,,,
1.8847656250,30,-130.0000000000,,,
1.8867187500,30,-91.0000000000,,,
1.8886718750,30,-70.0000000000,,,
1.8906250000,30,-87.0000000000,,,
1.8925781250,30,-106.0000000000,,,
1.8945312500,30,-109.0000000000,,,
1.8964843750,30,-123.0000000000,,,
1.8984375000,30,-133.0000000000,,,
1.9003906250,30,-124.0000000000,,,
1.9023437500,30,-120.0000000000,,,
1.9042968750,30,-89.0000000000,,,
1.9062500000,30,-29.0000000000,,,
1.9082031250,30,10.0000000000,,,
1.9101562500,30,21.0000000000,,,
1.9121093750,30,8.0000000000,,,
1.9140625000,30,-7.0000000000,,,
1.9160156250,30,-5.0000000000,,,
1.9179687500,30,9.0000000000,,,
1.9199218750,30,7.0000000000,,,
1.9218750000,30,4.0000000000,,,
1.9238281250,30,13.0000000000,,,
1.9257812500,30,22.0000000000,,,
1.9277343750,30,67.0000000000,,,
1.9296875000,30,117.0000000000,,,
1.9316406250,30,121.0000000000,,,
1.9335937500,30,105.0000000000,,,
1.9355468750,30,90.0000000000,,,
1.9375000000,31,89.0000000000,,,
1.9394531250,31,87.0000000000,,,
1.9414062500,31,96.0000000000,,,
1.9433593750,31,108.0000000000,,,
1.9453125000,31,123.0000000000,,,
1.9472656250,31,113.0000000000,,,
1.9492187500,31,75.0000000000,,,
1.9511718750,31,42.0000000000,,,
1.9531250000,31,25.0000000000,,,
1.9550781250,31,28.0000000000,,,
1.9570312500,31,32.0000000000,,,
1.9589843750,31,19.0000000000,,,
1.9609375000,31,16.0000000000,,,
1.9628906250,31,35.0000000000,,,
1.9648437500,31,74.0000000000,,,
1.9667968750,31,109.0000000000,33553,1.9667968750,0.0019531250
1.9687500000,31,109.0000000000,33554,1.9687500000,0.0000000000
1.9707031250,31,118.0000000000,,,
1.9726562500,31,85.0000000000,,,
1.9746093750,31,33.0000000000,,,
1.9765625000,31,-13.0000000000,,,
1.9785156250,31,-30.0000000000,,,
1.9804687500,31,-41.0000000000,,,
1.9824218750,31,-81.0000000000,,,
1.9843750000,31,-119.0000000000,,,
1.9863281250,31,-137.0000000000,,,
1.9882812500,31,-135.0000000000,,,
1.9902343750,31,-129.0000000000,,,
1.9921875000,31,-125.0000000000,,,
1.9941406250,31,-118.0000000000,,,
1.9960937500,31,-114.0000000000,,,
1.9980468750,31,-115.0000000000,,,
2.0000000000,32,-108.0000000000,,,
2.0019531250,32,-98.0000000000,,,
2.0039062500,32,-99.0000000000,,,
2.0058593750,32,-116.0000000000,,,
2.0078125000,32,-134.0000000000,,,
2.0097656250,32,-113.0000000000,,,
2.0117187500,32,-74.0000000000,,,
2.0136718750,32,-58.0000000000,,,
2.0156250000,32,-103.0000000000,,,
2.0175781250,32,-209.0000000000,,,
2.0195312500,32,-276.0000000000,,,
2.0214843750,32,-273.0000000000,,,
2.0234375000,32,-232.0000000000,,,
2.0253906250,32,-228.0000000000,,,
2.0273437500,32,-236.0000000000,,,
2.0292968750,32,-201.0000000000,,,
2.0312500000,32,-125.0000000000,,,
2.0332031250,32,-35.0000000000,,,
2.0351562500,32,24.0000000000,,,
2.0371093750,32,26.0000000000,,,
2.0390625000,32,19.0000000000,,,
2.0410156250,32,52.0000000000,,,
2.0429687500,32,91.0000000000,,,
2.0449218750,32,118.0000000000,,,
2.0468750000,32,132.0000000000,,,
2.0488281250,32,89.0000000000,,,
2.0507812500,32,52.0000000000,,,
2.0527343750,32,107.0000000000,,,
2.0546875000,32,192.0000000000,,,
2.0566406250,32,198.0000000000,,,
2.0585937500,32,154.0000000000,,,
2.0605468750,32,154.0000000000,,,
2.0625000000,33,178.0000000000,,,
2.0644531250,33,193.0000000000,,,
2.0664062500,33,203.0000000000,,,
2.0683593750,33,197.0000000000,,,
2.0703125000,33,164.0000000000,,,
2.0722656250,33,129.0000000000,,,
2.0742187500,33,149.0000000000,,,
2.0761718750,33,204.0000000000,,,
2.0781250000,33,149.0000000000,,,
2.0800781250,33,7.0000000000,,,
2.0820312500,33,-41.0000000000,,,
2.0839843750,33,23.0000000000,,,
2.0859375000,33,104.0000000000,,,
2.0878906250,33,105.0000000000,,,
2.0898437500,33,70.0000000000,,,
2.0917968750,33,88.0000000000,,,
2.0937500000,33,162.0000000000,,,
2.0957031250,33,229.0000000000,,,
2.0976562500,33,212.0000000000,,,
2.0996093750,33,139.0000000000,,,
2.1015625000,33,161.0000000000,,,
2.1035156250,33,248.0000000000,,,
2.1054687500,33,272.0000000000,,,
2.1074218750,33,231.0000000000,,,
2.1093750000,33,240.0000000000,,,
2.1113281250,33,275.0000000000,,,
2.1132812500,33,279.0000000000,,,
2.1152343750,33,244.0000000000,,,
2.1171875000,33,197.0000000000,,,
2.1191406250,33,170.0000000000,,,
2.1210937500,33,137.0000000000,,,
2.1230468750,33,119.0000000000,,,
2.1250000000,34,123.0000000000,,,
2.1269531250,34,116.0000000000,,,
2.1289062500,34,132.0000000000,,,
2.1308593750,34,186.0000000000,,,
2.1328125000,34,237.0000000000,,,
2.1347656250,34,230.0000000000,,,
2.1367187500,34,213.0000000000,,,
2.1386718750,34,188.0000000000,,,
2.1406250000,34,138.0000000000,,,
2.1425781250,34,113.0000000000,,,
2.1445312500,34,149.0000000000,,,
2.1464843750,34,197.0000000000,,,
2.1484375000,34,200.0000000000,,,
2.1503906250,34,171.0000000000,,,
2.1523437500,34,136.0000000000,,,
2.1542968750,34,113.0000000000,,,
2.1562500000,34,97.0000000000,,,
2.1582031250,34,96.0000000000,,,
2.1601562500,34,96.0000000000,,,
2.1621093750,34,75.0000000000,,,
2.1640625000,34,55.0000000000,,,
2.1660156250,34,37.0000000000,,,
2.1679687500,34,23.0000000000,,,
2.1699218750,34,2.0000000000,,,
2.1718750000,34,-8.0000000000,,,
2.1738281250,34,-17.0000000000,,,
2.1757812500,34,-21.0000000000,,,
2.1777343750,34,-23.0000000000,,,
2.1796875000,34,-33.0000000000,,,
2.1816406250,34,-25.0000000000,,,
2.1835937500,34,-13.0000000000,,,
2.1855468750,34,-3.0000000000,,,
2.1875000000,35,0.0000000000,,,
2.1894531250,35,6.0000000000,,,
2.1914062500,35,23.0000000000,,,
2.1933593750,35,9.0000000000,,,
2.1953125000,35,8.0000000000,,,
2.1972656250,35,44.0000000000,,,
2.1992187500,35,92.0000000000,,,
2.2011718750,35,119.0000000000,,,
2.2031250000,35,119.0000000000,,,
2.2050781250,35,132.0000000000,,,
2.2070312500,35,151.0000000000,,,
2.2089843750,35,134.0000000000,,,
2.2109375000,35,83.0000000000,,,
2.2128906250,35,55.0000000000,,,
2.2148437500,35,58.0000000000,,,
2.2167968750,35,38.0000000000,,,
2.2187500000,35,6.0000000000,,,
2.2207031250,35,-7.0000000000,,,
2.2226562500,35,-1.0000000000,,,
2.2246093750,35,16.0000000000,,,
2.2265625000,35,26.0000000000,,,
2.2285156250,35,26.0000000000,,,
2.2304687500,35,28.0000000000,,,
2.2324218750,35,28.0000000000,,,
2.2343750000,35,35.0000000000,,,
2.2363281250,35,41.0000000000,,,
2.2382812500,35,36.0000000000,,,
2.2402343750,35,43.0000000000,,,
2.2421875000,35,55.0000000000,,,
2.2441406250,35,64.0000000000,,,
2.2460937500,35,81.0000000000,,,
2.2480468750,35,83.0000000000,,,
2.2500000000,36,55.0000000000,,,
2.2519531250,36,44.0000000000,,,
2.2539062500,36,68.0000000000,,,
2.2558593750,36,73.0000000000,,,
2.2578125000,36,56.0000000000,,,
2.2597656250,36,57.0000000000,,,
2.2617187500,36,76.0000000000,,,
2.2636718750,36,93.0000000000,,,
2.2656250000,36,73.0000000000,,,
2.2675781250,36,45.0000000000,,,
2.2695312500,36,42.0000000000,,,
2.2714843750,36,48.0000000000,,,
2.2734375000,36,28.0000000000,,,
2.2753906250,36,11.0000000000,,,
2.2773437500,36,3.0000000000,,,
2.2792968750,36,12.0000000000,,,
2.2812500000,36,39.0000000000,,,
2.2832031250,36,64.0000000000,,,
2.2851562500,36,75.0000000000,,,
2.2871093750,36,82.0000000000,,,
2.2890625000,36,98.0000000000,,,
2.2910156250,36,123.0000000000,,,
2.2929687500,36,129.0000000000,,,
2.2949218750,36,121.0000000000,,,
2.2968750000,36,119.0000000000,,,
2.2988281250,36,107.0000000000,,,
2.3007812500,36,72.0000000000,,,
2.3027343750,36,22.0000000000,,,
2.3046875000,36,-21.0000000000,,,
2.3066406250,36,-19.0000000000,,,
2.3085937500,36,21.0000000000,,,
2.3105468750,36,54.0000000000,,,
2.3125000000,37,57.0000000000,,,
2.3144531250,37,55.0000000000,,,
2.3164062500,37,67.0000000000,,,
2.3183593750,37,86.0000000000,,,
2.3203125000,37,90.0000000000,,,
2.3222656250,37,76.0000000000,,,
2.3242187500,37,69.0000000000,,,
2.3261718750,37,70.0000000000,,,
2.3281250000,37,59.0000000000,,,
2.3300781250,37,28.0000000000,,,
2.3320312500,37,4.0000000000,,,
2.3339843750,37,17.0000000000,,,
2.3359375000,37,37.0000000000,,,
2.3378906250,37,57.0000000000,,,
2.3398437500,37,90.0000000000,,,
2.3417968750,37,121.0000000000,,,
2.3437500000,37,139.0000000000,,,
2.3457031250,37,148.0000000000,,,
2.3476562500,37,132.0000000000,,,
2.3496093750,37,98.0000000000,,,
2.3515625000,37,77.0000000000,,,
2.3535156250,37,72.0000000000,,,
2.3554687500,37,50.0000000000,,,
2.3574218750,37,42.0000000000,,,
2.3593750000,37,60.0000000000,,,
2.3613281250,37,54.0000000000,,,
2.3632812500,37,26.0000000000,,,
2.3652343750,37,10.0000000000,,,
2.3671875000,37,18.0000000000,,,
2.3691406250,37,39.0000000000,,,
2.3710937500,37,56.0000000000,,,
2.3730468750,37,35.0000000000,,,
2.3750000000,38,6.0000000000,,,
2.3769531250,38,13.0000000000,,,
2.3789062500,38,36.0000000000,,,
2.3808593750,38,39.0000000000,,,
2.3828125000,38,40.0000000000,,,
2.3847656250,38,42.0000000000,,,
2.3867187500,38,45.0000000000,,,
2.3886718750,38,52.0000000000,,,
2.3906250000,38,53.0000000000,,,
2.3925781250,38,57.0000000000,,,
2.3945312500,38,48.0000000000,,,
2.3964843750,38,42.0000000000,,,
2.3984375000,38,40.0000000000,,,
2.4003906250,38,38.0000000000,,,
2.4023437500,38,38.0000000000,,,
2.4042968750,38,33.0000000000,,,
2.4062500000,38,23.0000000000,,,
2.4082031250,38,20.0000000000,,,
2.4101562500,38,12.0000000000,,,
2.4121093750,38,19.0000000000,,,
2.4140625000,38,44.0000000000,,,
2.4160156250,38,64.0000000000,,,
2.4179687500,38,56.0000000000,,,
2.4199218750,38,23.0000000000,,,
2.4218750000,38,3.0000000000,,,
2.4238281250,38,21.0000000000,,,
2.4257812500,38,53.0000000000,,,
2.4277343750,38,69.0000000000,,,
2.4296875000,38,66.0000000000,,,
2.4316406250,38,17.0000000000,,,
2.4335937500,38,-38.0000000000,,,
2.4355468750,38,-37.0000000000,,,
2.4375000000,39,27.0000000000,,,
2.4394531250,39,84.0000000000,,,
2.4414062500,39,82.0000000000,,,
2.4433593750,39,45.0000000000,,,
2.4453125000,39,18.0000000000,,,
2.4472656250,39,12.0000000000,,,
2.4492187500,39,3.0000000000,,,
2.4511718750,39,4.0000000000,,,
2.4531250000,39,38.0000000000,,,
2.4550781250,39,33.0000000000,,,
2.4570312500,39,-43.0000000000,,,
2.4589843750,39,-115.0000000000,,,
2.4609375000,39,-106.0000000000,,,
2.4628906250,39,-24.0000000000,,,
2.4648437500,39,28.0000000000,,,
2.4667968750,39,7.0000000000,,,
2.4687500000,39,-39.0000000000,,,
2.4707031250,39,-62.0000000000,,,
2.4726562500,39,-60.0000000000,,,
2.4746093750,39,-46.0000000000,,,
2.4765625000,39,-41.0000000000,,,
2.4785156250,39,-54.0000000000,,,
2.4804687500,39,-53.0000000000,,,
2.4824218750,39,-45.0000000000,,,
2.4843750000,39,-51.0000000000,,,
2.4863281250,39,-56.0000000000,,,
2.4882812500,39,-67.0000000000,,,
2.4902343750,39,-61.0000000000,,,
2.4921875000,39,-49.0000000000,,,
2.4941406250,39,-51.0000000000,,,
2.4960937500,39,-28.0000000000,,,
2.4980468750,39,1.0000000000,,,
2.5000000000,40,2.0000000000,,,
2.5019531250,40,0.0000000000,,,
2.5039062500,40,0.0000000000,,,
2.5058593750,40,2.0000000000,,,
2.5078125000,40,48.0000000000,,,
2.5097656250,40,68.0000000000,,,
2.5117187500,40,33.0000000000,,,
2.5136718750,40,6.0000000000,,,
2.5156250000,40,5.0000000000,,,
2.5175781250,40,28.0000000000,,,
2.5195312500,40,50.0000000000,,,
2.5214843750,40,33.0000000000,,,
2.5234375000,40,26.0000000000,,,
2.5253906250,40,13.0000000000,,,
2.5273437500,40,11.0000000000,,,
2.5292968750,40,28.0000000000,,,
2.5312500000,40,19.0000000000,,,
2.5332031250,40,2.0000000000,,,
2.5351562500,40,18.0000000000,,,
2.5371093750,40,12.0000000000,,,
2.5390625000,40,-1.0000000000,,,
2.5410156250,40,9.0000000000,,,
2.5429687500,40,38.0000000000,,,
2.5449218750,40,53.0000000000,,,
2.5468750000,40,29.0000000000,,,
2.5488281250,40,16.0000000000,,,
2.5507812500,40,45.0000000000,,,
2.5527343750,40,72.0000000000,,,
2.5546875000,40,50.0000000000,,,
2.5566406250,40,22.0000000000,,,
2.5585937500,40,36.0000000000,,,
2.5605468750,40,67.0000000000,,,
2.5625000000,41,59.0000000000,,,
2.5644531250,41,21.0000000000,,,
2.5664062500,41,-1.0000000000,,,
2.5683593750,41,-5.0000000000,,,
2.5703125000,41,-19.0000000000,,,
2.5722656250,41,-30.0000000000,,,
2.5742187500,41,-12.0000000000,,,
2.5761718750,41,25.0000000000,,,
2.5781250000,41,21.0000000000,,,
2.5800781250,41,-22.0000000000,,,
2.5820312500,41,-25.0000000000,,,
2.5839843750,41,-13.0000000000,,,
2.5859375000,41,-22.0000000000,,,
2.5878906250,41,-52.0000000000,,,
2.5898437500,41,-30.0000000000,,,
2.5917968750,41,32.0000000000,,,
2.5937500000,41,69.0000000000,,,
2.5957031250,41,80.0000000000,,,
2.5976562500,41,104.0000000000,,,
2.5996093750,41,84.0000000000,,,
2.6015625000,41,39.0000000000,,,
2.6035156250,41,52.0000000000,,,
2.6054687500,41,73.0000000000,,,
2.6074218750,41,67.0000000000,,,
2.6093750000,41,40.0000000000,,,
2.6113281250,41,35.0000000000,,,
2.6132812500,41,43.0000000000,,,
2.6152343750,41,50.0000000000,,,
2.6171875000,41,54.0000000000,,,
2.6191406250,41,58.0000000000,,,
2.6210937500,41,2.0000000000,,,
2.6230468750,41,-105.0000000000,,,
2.6250000000,42,-147.0000000000,,,
2.6269531250,42,-99.0000000000,,,
2.6289062500,42,-75.0000000000,,,
2.6308593750,42,-125.0000000000,,,
2.6328125000,42,-167.0000000000,,,
2.6347656250,42,-134.0000000000,,,
2.6367187500,42,-87.0000000000,,,
2.6386718750,42,-70.0000000000,,,
2.6406250000,42,-39.0000000000,,,
2.6425781250,42,10.0000000000,,,
2.6445312500,42,33.0000000000,,,
2.6464843750,42,16.0000000000,,,
2.6484375000,42,-40.0000000000,,,
2.6503906250,42,-55.0000000000,,,
2.6523437500,42,-76.0000000000,,,
2.6542968750,42,-87.0000000000,,,
2.6562500000,42,-71.0000000000,,,
2.6582031250,42,-71.0000000000,,,
2.6601562500,42,-131.0000000000,,,
2.6621093750,42,-170.0000000000,,,
2.6640625000,42,-171.0000000000,,,
2.6660156250,42,-108.0000000000,,,
2.6679687500,42,-9.0000000000,,,
2.6699218750,42,39.0000000000,,,
2.6718750000,42,26.0000000000,,,
2.6738281250,42,13.0000000000,,,
2.6757812500,42,19.0000000000,,,
2.6777343750,42,22.0000000000,,,
2.6796875000,42,20.0000000000,,,
2.6816406250,42,50.0000000000,,,
2.6835937500,42,36.0000000000,,,
2.6855468750,42,-50.0000000000,,,
2.6875000000,43,-68.0000000000,,,
2.6894531250,43,23.0000000000,,,
2.6914062500,43,71.0000000000,,,
2.6933593750,43,5.0000000000,,,
2.6953125000,43,-26.0000000000,,,
2.6972656250,43,-46.0000000000,,,
2.6992187500,43,-24.0000000000,,,
2.7011718750,43,8.0000000000,,,
2.7031250000,43,-3.0000000000,,,
2.7050781250,43,-40.0000000000,,,
2.7070312500,43,-21.0000000000,,,
2.7089843750,43,27.0000000000,,,
2.7109375000,43,73.0000000000,,,
2.7128906250,43,118.0000000000,,,
2.7148437500,43,102.0000000000,,,
2.7167968750,43,36.0000000000,,,
2.7187500000,43,-25.0000000000,,,
2.7207031250,43,-91.0000000000,,,
2.7226562500,43,-115.0000000000,,,
2.7246093750,43,-54.0000000000,,,
2.7265625000,43,43.0000000000,,,
2.7285156250,43,50.0000000000,,,
2.7304687500,43,-121.0000000000,,,
2.7324218750,43,-205.0000000000,,,
2.7343750000,43,-108.0000000000,,,
2.7363281250,43,-22.0000000000,,,
2.7382812500,43,-39.0000000000,,,
2.7402343750,43,-78.0000000000,,,
2.7421875000,43,-78.0000000000,,,
2.7441406250,43,-145.0000000000,,,
2.7460937500,43,-71.0000000000,,,
2.7480468750,43,103.0000000000,,,
2.7500000000,44,264.0000000000,,,
2.7519531250,44,241.0000000000,,,
2.7539062500,44,-8.0000000000,,,
2.7558593750,44,-94.0000000000,,,
2.7578125000,44,50.0000000000,,,
2.7597656250,44,92.0000000000,,,
2.7617187500,44,-46.0000000000,,,
2.7636718750,44,-23.0000000000,,,
2.7656250000,44,99.0000000000,,,
2.7675781250,44,60.0000000000,,,
2.7695312500,44,152.0000000000,,,
2.7714843750,44,321.0000000000,,,
2.7734375000,44,274.0000000000,,,
2.7753906250,44,11.0000000000,,,
2.7773437500,44,-369.0000000000,,,
2.7792968750,44,-491.0000000000,,,
2.7812500000,44,-365.0000000000,,,
2.7832031250,44,-233.0000000000,,,
2.7851562500,44,-116.0000000000,,,
2.7871093750,44,93.0000000000,,,
2.7890625000,44,258.0000000000,,,
2.7910156250,44,119.0000000000,,,
2.7929687500,44,-67.0000000000,,,
2.7949218750,44,39.0000000000,,,
2.7968750000,44,150.0000000000,,,
2.7988281250,44,155.0000000000,,,
2.8007812500,44,39.0000000000,,,
2.8027343750,44,-248.0000000000,,,
2.8046875000,44,-494.0000000000,,,
2.8066406250,44,-487.0000000000,,,
2.8085937500,44,-222.0000000000,,,
2.8105468750,44,34.0000000000,,,
2.8125000000,45,106.0000000000,,,
2.8144531250,45,58.0000000000,,,
2.8164062500,45,-44.0000000000,,,
2.8183593750,45,-169.0000000000,,,
2.8203125000,45,-122.0000000000,,,
2.8222656250,45,10.0000000000,,,
2.8242187500,45,49.0000000000,,,
2.8261718750,45,-40.0000000000,,,
2.8281250000,45,-139.0000000000,,,
2.8300781250,45,-172.0000000000,,,
2.8320312500,45,-86.0000000000,,,
2.8339843750,45,-57.0000000000,,,
2.8359375000,45,-119.0000000000,,,
2.8378906250,45,-148.0000000000,,,
2.8398437500,45,-131.0000000000,,,
2.8417968750,45,-14.0000000000,,,
2.8437500000,45,90.0000000000,33552,2.8437500000,0.0000000000
2.8457031250,45,90.0000000000,,,
2.8476562500,45,104.0000000000,,,
2.8496093750,45,90.0000000000,,,
2.8515625000,45,66.0000000000,,,
2.8535156250,45,77.0000000000,,,
2.8554687500,45,150.0000000000,,,
2.8574218750,45,225.0000000000,,,
2.8593750000,45,232.0000000000,,,
2.8613281250,45,135.0000000000,,,
2.8632812500,45,28.0000000000,,,
2.8652343750,45,8.0000000000,,,
2.8671875000,45,32.0000000000,,,
2.8691406250,45,49.0000000000,,,
2.8710937500,45,69.0000000000,,,
2.8730468750,45,117.0000000000,,,
2.8750000000,46,153.0000000000,,,
2.8769531250,46,155.0000000000,,,
2.8789062500,46,147.0000000000,,,
2.8808593750,46,116.0000000000,,,
2.8828125000,46,101.0000000000,,,
2.8847656250,46,119.0000000000,,,
2.8867187500,46,152.0000000000,,,
2.8886718750,46,160.0000000000,,,
2.8906250000,46,135.0000000000,,,
2.8925781250,46,108.0000000000,,,
2.8945312500,46,91.0000000000,,,
2.8964843750,46,87.0000000000,,,
2.8984375000,46,87.0000000000,,,
2.9003906250,46,101.0000000000,,,
2.9023437500,46,106.0000000000,,,
2.9042968750,46,74.0000000000,,,
2.9062500000,46,20.0000000000,,,
2.9082031250,46,4.0000000000,,,
2.9101562500,46,54.0000000000,,,
2.9121093750,46,104.0000000000,,,
2.9140625000,46,128.0000000000,,,
2.9160156250,46,146.0000000000,,,
2.9179687500,46,160.0000000000,,,
2.9199218750,46,157.0000000000,,,
2.9218750000,46,148.0000000000,,,
2.9238281250,46,129.0000000000,,,
2.9257812500,46,130.0000000000,,,
2.9277343750,46,144.0000000000,,,
2.9296875000,46,118.0000000000,,,
2.9316406250,46,64.0000000000,,,
2.9335937500,46,38.0000000000,,,
2.9355468750,46,51.0000000000,,,
2.9375000000,47,82.0000000000,,,
2.9394531250,47,114.0000000000,,,
2.9414062500,47,144.0000000000,,,
2.9433593750,47,165.0000000000,,,
2.9453125000,47,154.0000000000,,,
2.9472656250,47,105.0000000000,,,
2.9492187500,47,57.0000000000,,,
2.9511718750,47,54.0000000000,,,
2.9531250000,47,59.0000000000,,,
2.9550781250,47,59.0000000000,,,
2.9570312500,47,97.0000000000,,,
2.9589843750,47,162.0000000000,,,
2.9609375000,47,200.0000000000,,,
2.9628906250,47,186.0000000000,,,
2.9648437500,47,160.0000000000,,,
2.9667968750,47,187.0000000000,33552,2.9667968750,0.0000000000
2.9687500000,47,184.0000000000,,,
2.9707031250,47,133.0000000000,,,
2.9726562500,47,96.0000000000,,,
2.9746093750,47,106.0000000000,,,
2.9765625000,47,117.0000000000,,,
2.9785156250,47,130.0000000000,,,
2.9804687500,47,156.0000000000,,,
2.9824218750,47,173.0000000000,,,
2.9843750000,47,177.0000000000,,,
2.9863281250,47,132.0000000000,,,
2.9882812500,47,76.0000000000,,,
2.9902343750,47,81.0000000000,,,
2.9921875000,47,139.0000000000,,,
2.9941406250,47,202.0000000000,,,
2.9960937500,47,202.0000000000,,,
2.9980468750,47,149.0000000000,,,
3.0000000000,48,123.0000000000,,,
3.0019531250,48,146.0000000000,,,
3.0039062500,48,195.0000000000,,,
3.0058593750,48,194.0000000000,,,
3.0078125000,48,113.0000000000,,,
3.0097656250,48,38.0000000000,,,
3.0117187500,48,28.0000000000,,,
3.0136718750,48,50.0000000000,,,
3.0156250000,48,50.0000000000,,,
3.0175781250,48,33.0000000000,,,
3.0195312500,48,68.0000000000,,,
3.0214843750,48,112.0000000000,,,
3.0234375000,48,129.0000000000,,,
3.0253906250,48,165.0000000000,,,
3.0273437500,48,181.0000000000,,,
3.0292968750,48,113.0000000000,,,
3.0312500000,48,27.0000000000,,,
3.0332031250,48,28.0000000000,,,
3.0351562500,48,21.0000000000,,,
3.0371093750,48,-25.0000000000,,,
3.0390625000,48,-18.0000000000,,,
3.0410156250,48,64.0000000000,,,
3.0429687500,48,145.0000000000,,,
3.0449218750,48,162.0000000000,,,
3.0468750000,48,160.0000000000,,,
3.0488281250,48,167.0000000000,,,
3.0507812500,48,151.0000000000,,,
3.0527343750,48,156.0000000000,,,
3.0546875000,48,235.0000000000,,,
3.0566406250,48,269.0000000000,,,
3.0585937500,48,212.0000000000,,,
3.0605468750,48,124.0000000000,,,
3.0625000000,49,71.0000000000,,,
3.0644531250,49,57.0000000000,,,
3.0664062500,49,49.0000000000,,,
3.0683593750,49,41.0000000000,,,
3.0703125000,49,27.0000000000,,,
3.0722656250,49,26.0000000000,,,
3.0742187500,49,67.0000000000,,,
3.0761718750,49,106.0000000000,,,
3.0781250000,49,97.0000000000,,,
3.0800781250,49,74.0000000000,,,
3.0820312500,49,102.0000000000,,,
3.0839843750,49,188.0000000000,,,
3.0859375000,49,217.0000000000,,,
3.0878906250,49,152.0000000000,,,
3.0898437500,49,84.0000000000,,,
3.0917968750,49,53.0000000000,,,
3.0937500000,49,4.0000000000,,,
3.0957031250,49,-60.0000000000,,,
3.0976562500,49,-28.0000000000,,,
3.0996093750,49,67.0000000000,,,
3.1015625000,49,97.0000000000,,,
3.1035156250,49,56.0000000000,,,
3.1054687500,49,52.0000000000,,,
3.1074218750,49,89.0000000000,,,
3.1093750000,49,106.0000000000,,,
3.1113281250,49,124.0000000000,,,
3.1132812500,49,173.0000000000,,,
3.1152343750,49,205.0000000000,,,
3.1171875000,49,183.0000000000,,,
3.1191406250,49,132.0000000000,,,
3.1210937500,49,98.0000000000,,,
3.1230468750,49,102.0000000000,,,
3.1250000000,50,136.0000000000,,,
3.1269531250,50,134.0000000000,,,
3.1289062500,50,101.0000000000,,,
3.1308593750,50,132.0000000000,,,
3.1328125000,50,188.0000000000,,,
3.1347656250,50,153.0000000000,,,
3.1367187500,50,100.0000000000,,,
3.1386718750,50,117.0000000000,,,
3.1406250000,50,115.0000000000,,,
3.1425781250,50,98.0000000000,,,
3.1445312500,50,119.0000000000,,,
3.1464843750,50,154.0000000000,,,
3.1484375000,50,180.0000000000,,,
3.1503906250,50,180.0000000000,,,
3.1523437500,50,161.0000000000,,,
3.1542968750,50,130.0000000000,,,
3.1562500000,50,119.0000000000,,,
3.1582031250,50,114.0000000000,,,
3.1601562500,50,102.0000000000,,,
3.1621093750,50,85.0000000000,,,
3.1640625000,50,55.0000000000,,,
3.1660156250,50,22.0000000000,,,
3.1679687500,50,41.0000000000,,,
3.1699218750,50,76.0000000000,,,
3.1718750000,50,58.0000000000,,,
3.1738281250,50,5.0000000000,,,
3.1757812500,50,22.0000000000,,,
3.1777343750,50,73.0000000000,,,
3.1796875000,50,60.0000000000,,,
3.1816406250,50,32.0000000000,,,
3.1835937500,50,64.0000000000,,,
3.1855468750,50,119.0000000000,,,
3.1875000000,51,150.0000000000,,,
3.1894531250,51,146.0000000000,,,
3.1914062500,51,91.0000000000,,,
3.1933593750,51,8.0000000000,,,
3.1953125000,51,-40.0000000000,,,
3.1972656250,51,-35.0000000000,,,
3.1992187500,51,-4.0000000000,,,
3.2011718750,51,18.0000000000,,,
3.2031250000,51,32.0000000000,,,
3.2050781250,51,51.0000000000,,,
3.2070312500,51,82.0000000000,,,
3.2089843750,51,103.0000000000,,,
3.2109375000,51,67.0000000000,,,
3.2128906250,51,12.0000000000,,,
3.2148437500,51,-2.0000000000,,,
3.2167968750,51,17.0000000000,,,
3.2187500000,51,17.0000000000,,,
3.2207031250,51,-9.0000000000,,,
3.2226562500,51,-19.0000000000,,,
3.2246093750,51,5.0000000000,,,
3.2265625000,51,58.0000000000,,,
3.2285156250,51,93.0000000000,,,
3.2304687500,51,90.0000000000,,,
3.2324218750,51,72.0000000000,,,
3.2343750000,51,65.0000000000,,,
3.2363281250,51,53.0000000000,,,
3.2382812500,51,40.0000000000,,,
3.2402343750,51,37.0000000000,,,
3.2421875000,51,44.0000000000,,,
3.2441406250,51,50.0000000000,,,
3.2460937500,51,45.0000000000,,,
3.2480468750,51,20.0000000000,,,
3.2500000000,52,-18.0000000000,,,
3.2519531250,52,-51.0000000000,,,
3.2539062500,52,-68.0000000000,,,
3.2558593750,52,-67.0000000000,,,
3.2578125000,52,-49.0000000000,,,
3.2597656250,52,-34.0000000000,,,
3.2617187500,52,-30.0000000000,,,
3.2636718750,52,-28.0000000000,,,
3.2656250000,52,-23.0000000000,,,
3.2675781250,52,-29.0000000000,,,
3.2695312500,52,-38.0000000000,,,
3.2714843750,52,-19.0000000000,,,
3.2734375000,52,5.0000000000,,,
3.2753906250,52,20.0000000000,,,
3.2773437500,52,24.0000000000,,,
3.2792968750,52,23.0000000000,,,
3.2812500000,52,36.0000000000,,,
3.2832031250,52,36.0000000000,,,
3.2851562500,52,23.0000000000,,,
3.2871093750,52,22.0000000000,,,
3.2890625000,52,35.0000000000,,,
3.2910156250,52,42.0000000000,,,
3.2929687500,52,26.0000000000,,,
3.2949218750,52,18.0000000000,,,
3.2968750000,52,34.0000000000,,,
3.2988281250,52,70.0000000000,,,
3.3007812500,52,88.0000000000,,,
3.3027343750,52,77.0000000000,,,
3.3046875000,52,57.0000000000,,,
3.3066406250,52,50.0000000000,,,
3.3085937500,52,58.0000000000,,,
3.3105468750,52,75.0000000000,,,
3.3125000000,53,88.0000000000,,,
3.3144531250,53,98.0000000000,,,
3.3164062500,53,102.0000000000,,,
3.3183593750,53,88.0000000000,,,
3.3203125000,53,82.0000000000,,,
3.3222656250,53,91.0000000000,,,
3.3242187500,53,84.0000000000,,,
3.3261718750,53,55.0000000000,,,
3.3281250000,53,50.0000000000,,,
3.3300781250,53,64.0000000000,,,
3.3320312500,53,83.0000000000,,,
3.3339843750,53,97.0000000000,,,
3.3359375000,53,100.0000000000,,,
3.3378906250,53,108.0000000000,,,
3.3398437500,53,117.0000000000,,,
3.3417968750,53,104.0000000000,,,
3.3437500000,53,77.0000000000,,,
3.3457031250,53,68.0000000000,,,
3.3476562500,53,82.0000000000,,,
3.3496093750,53,99.0000000000,,,
3.3515625000,53,117.0000000000,,,
3.3535156250,53,132.0000000000,,,
3.3554687500,53,133.0000000000,,,
3.3574218750,53,144.0000000000,,,
3.3593750000,53,162.0000000000,,,
3.3613281250,53,170.0000000000,,,
3.3632812500,53,154.0000000000,,,
3.3652343750,53,118.0000000000,,,
3.3671875000,53,85.0000000000,,,
3.3691406250,53,84.0000000000,,,
3.3710937500,53,91.0000000000,,,
3.3730468750,53,84.0000000000,,,
3.3750000000,54,60.0000000000,,,
3.3769531250,54,44.0000000000,,,
3.3789062500,54,52.0000000000,,,
3.3808593750,54,71.0000000000,,,
3.3828125000,54,75.0000000000,,,
3.3847656250,54,69.0000000000,,,
3.3867187500,54,60.0000000000,,,
3.3886718750,54,39.0000000000,,,
3.3906250000,54,6.0000000000,,,
3.3925781250,54,4.0000000000,,,
3.3945312500,54,9.0000000000,,,
3.3964843750,54,-8.0000000000,,,
3.3984375000,54,-35.0000000000,,,
3.4003906250,54,-49.0000000000,,,
3.4023437500,54,-27.0000000000,,,
3.4042968750,54,-2.0000000000,,,
3.4062500000,54,9.0000000000,,,
3.4082031250,54,7.0000000000,,,
3.4101562500,54,7.0000000000,,,
3.4121093750,54,40.0000000000,,,
3.4140625000,54,81.0000000000,,,
3.4160156250,54,85.0000000000,,,
3.4179687500,54,52.0000000000,,,
3.4199218750,54,21.0000000000,,,
3.4218750000,54,25.0000000000,,,
3.4238281250,54,44.0000000000,,,
3.4257812500,54,61.0000000000,,,
3.4277343750,54,64.0000000000,,,
3.4296875000,54,52.0000000000,,,
3.4316406250,54,38.0000000000,,,
3.4335937500,54,36.0000000000,,,
3.4355468750,54,26.0000000000,,,
3.4375000000,55,-4.0000000000,,,
3.4394531250,55,-33.0000000000,,,
3.4414062500,55,-49.0000000000,,,
3.4433593750,55,-53.0000000000,,,
3.4453125000,55,-49.0000000000,,,
3.4472656250,55,-69.0000000000,,,
3.4492187500,55,-76.0000000000,,,
3.4511718750,55,-58.0000000000,,,
3.4531250000,55,-43.0000000000,,,
3.4550781250,55,-26.0000000000,,,
3.4570312500,55,-9.0000000000,,,
3.4589843750,55,-23.0000000000,,,
3.4609375000,55,-49.0000000000,,,
3.4628906250,55,-41.0000000000,,,
3.4648437500,55,-21.0000000000,,,
3.4667968750,55,-13.0000000000,,,
3.4687500000,55,-23.0000000000,,,
3.4707031250,55,-25.0000000000,,,
3.4726562500,55,-25.0000000000,,,
3.4746093750,55,-44.0000000000,,,
3.4765625000,55,-71.0000000000,,,
3.4785156250,55,-78.0000000000,,,
3.4804687500,55,-74.0000000000,,,
3.4824218750,55,-69.0000000000,,,
3.4843750000,55,-67.0000000000,,,
3.4863281250,55,-81.0000000000,,,
3.4882812500,55,-88.0000000000,,,
3.4902343750,55,-77.0000000000,,,
3.4921875000,55,-57.0000000000,,,
3.4941406250,55,-52.0000000000,,,
3.4960937500,55,-42.0000000000,,,
3.4980468750,55,-18.0000000000,,,
3.5000000000,56,-17.0000000000,,,
3.5019531250,56,-40.0000000000,,,
3.5039062500,56,-55.0000000000,,,
3.5058593750,56,-37.0000000000,,,
3.5078125000,56,-1.0000000000,,,
3.5097656250,56,28.0000000000,,,
3.5117187500,56,29.0000000000,,,
3.5136718750,56,19.0000000000,,,
3.5156250000,56,-2.0000000000,,,
3.5175781250,56,-2.0000000000,,,
3.5195312500,56,35.0000000000,,,
3.5214843750,56,61.0000000000,,,
3.5234375000,56,88.0000000000,,,
3.5253906250,56,100.0000000000,,,
3.5273437500,56,76.0000000000,,,
3.5292968750,56,60.0000000000,,,
3.5312500000,56,48.0000000000,,,
3.5332031250,56,34.0000000000,,,
3.5351562500,56,56.0000000000,,,
3.5371093750,56,91.0000000000,,,
3.5390625000,56,98.0000000000,,,
3.5410156250,56,70.0000000000,,,
3.5429687500,56,43.0000000000,,,
3.5449218750,56,32.0000000000,,,
3.5468750000,56,25.0000000000,,,
3.5488281250,56,50.0000000000,,,
3.5507812500,56,102.0000000000,,,
3.5527343750,56,115.0000000000,,,
3.5546875000,56,115.0000000000,,,
3.5566406250,56,118.0000000000,,,
3.5585937500,56,132.0000000000,,,
3.5605468750,56,156.0000000000,,,
3.5625000000,57,166.0000000000,,,
3.5644531250,57,147.0000000000,,,
3.5664062500,57,105.0000000000,,,
3.5683593750,57,56.0000000000,,,
3.5703125000,57,19.0000000000,,,
3.5722656250,57,29.0000000000,,,
3.5742187500,57,72.0000000000,,,
3.5761718750,57,90.0000000000,,,
3.5781250000,57,67.0000000000,,,
3.5800781250,57,55.0000000000,,,
3.5820312500,57,124.0000000000,,,
3.5839843750,57,200.0000000000,,,
3.5859375000,57,193.0000000000,,,
3.5878906250,57,132.0000000000,,,
3.5898437500,57,106.0000000000,,,
3.5917968750,57,107.0000000000,,,
3.5937500000,57,107.0000000000,,,
3.5957031250,57,108.0000000000,,,
3.5976562500,57,74.0000000000,,,
3.5996093750,57,26.0000000000,,,
3.6015625000,57,19.0000000000,,,
3.6035156250,57,38.0000000000,,,
3.6054687500,57,37.0000000000,,,
3.6074218750,57,29.0000000000,,,
3.6093750000,57,21.0000000000,,,
3.6113281250,57,22.0000000000,,,
3.6132812500,57,57.0000000000,,,
3.6152343750,57,50.0000000000,,,
3.6171875000,57,-1.0000000000,,,
3.6191406250,57,-33.0000000000,,,
3.6210937500,57,-54.0000000000,,,
3.6230468750,57,-75.0000000000,,,
3.6250000000,58,-103.0000000000,,,
3.6269531250,58,-109.0000000000,,,
3.6289062500,58,-89.0000000000,,,
3.6308593750,58,-71.0000000000,,,
3.6328125000,58,-30.0000000000,,,
3.6347656250,58,16.0000000000,,,
3.6367187500,58,32.0000000000,,,
3.6386718750,58,34.0000000000,,,
3.6406250000,58,9.0000000000,,,
3.6425781250,58,-14.0000000000,,,
3.6445312500,58,-12.0000000000,,,
3.6464843750,58,-5.0000000000,,,
3.6484375000,58,-7.0000000000,,,
3.6503906250,58,1.0000000000,,,
3.6523437500,58,19.0000000000,,,
3.6542968750,58,35.0000000000,,,
3.6562500000,58,40.0000000000,,,
3.6582031250,58,21.0000000000,,,
3.6601562500,58,6.0000000000,,,
3.6621093750,58,24.0000000000,,,
3.6640625000,58,53.0000000000,,,
3.6660156250,58,55.0000000000,,,
3.6679687500,58,39.0000000000,,,
3.6699218750,58,34.0000000000,,,
3.6718750000,58,26.0000000000,,,
3.6738281250,58,1.0000000000,,,
3.6757812500,58,-10.0000000000,,,
3.6777343750,58,5.0000000000,,,
3.6796875000,58,20.0000000000,,,
3.6816406250,58,39.0000000000,,,
3.6835937500,58,85.0000000000,,,
3.6855468750,58,65.0000000000,,,
3.6875000000,59,3.0000000000,,,
3.6894531250,59,-6.0000000000,,,
3.6914062500,59,25.0000000000,,,
3.6933593750,59,64.0000000000,,,
3.6953125000,59,38.0000000000,,,
3.6972656250,59,10.0000000000,,,
3.6992187500,59,17.0000000000,,,
3.7011718750,59,16.0000000000,,,
3.7031250000,59,7.0000000000,,,
3.7050781250,59,0.0000000000,,,
3.7070312500,59,-4.0000000000,,,
3.7089843750,59,-35.0000000000,,,
3.7109375000,59,-71.0000000000,,,
3.7128906250,59,-116.0000000000,,,
3.7148437500,59,-170.0000000000,,,
3.7167968750,59,-193.0000000000,,,
3.7187500000,59,-178.0000000000,,,
3.7207031250,59,-168.0000000000,,,
3.7226562500,59,-153.0000000000,,,
3.7246093750,59,-108.0000000000,,,
3.7265625000,59,-69.0000000000,,,
3.7285156250,59,-40.0000000000,,,
3.7304687500,59,-37.0000000000,,,
3.7324218750,59,-21.0000000000,,,
3.7343750000,59,0.0000000000,,,
3.7363281250,59,-49.0000000000,,,
3.7382812500,59,-136.0000000000,,,
3.7402343750,59,-181.0000000000,,,
3.7421875000,59,-157.0000000000,,,
3.7441406250,59,-115.0000000000,,,
3.7460937500,59,-86.0000000000,,,
3.7480468750,59,-100.0000000000,,,
3.7500000000,60,-122.0000000000,,,
3.7519531250,60,-93.0000000000,,,
3.7539062500,60,-6.0000000000,,,
3.7558593750,60,92.0000000000,,,
3.7578125000,60,146.0000000000,,,
3.7597656250,60,83.0000000000,,,
3.7617187500,60,-52.0000000000,,,
3.7636718750,60,-137.0000000000,,,
3.7656250000,60,-134.0000000000,,,
3.7675781250,60,-88.0000000000,,,
3.7695312500,60,-20.0000000000,,,
3.7714843750,60,40.0000000000,,,
3.7734375000,60,70.0000000000,,,
3.7753906250,60,85.0000000000,,,
3.7773437500,60,114.0000000000,,,
3.7792968750,60,119.0000000000,,,
3.7812500000,60,106.0000000000,,,
3.7832031250,60,151.0000000000,,,
3.7851562500,60,243.0000000000,,,
3.7871093750,60,277.0000000000,,,
3.7890625000,60,225.0000000000,,,
3.7910156250,60,204.0000000000,,,
3.7929687500,60,194.0000000000,,,
3.7949218750,60,115.0000000000,,,
3.7968750000,60,76.0000000000,,,
3.7988281250,60,86.0000000000,,,
3.8007812500,60,36.0000000000,,,
3.8027343750,60,-51.0000000000,,,
3.8046875000,60,-82.0000000000,,,
3.8066406250,60,-13.0000000000,,,
3.8085937500,60,81.0000000000,,,
3.8105468750,60,145.0000000000,,,
3.8125000000,61,162.0000000000,,,
3.8144531250,61,186.0000000000,,,
3.8164062500,61,247.0000000000,,,
3.8183593750,61,266.0000000000,,,
3.8203125000,61,162.0000000000,,,
3.8222656250,61,48.0000000000,,,
3.8242187500,61,24.0000000000,,,
3.8261718750,61,102.0000000000,,,
3.8281250000,61,156.0000000000,,,
3.8300781250,61,165.0000000000,,,
3.8320312500,61,180.0000000000,,,
3.8339843750,61,274.0000000000,,,
3.8359375000,61,354.0000000000,,,
3.8378906250,61,193.0000000000,,,
3.8398437500,61,12.0000000000,,,
3.8417968750,61,51.0000000000,,,
3.8437500000,61,274.0000000000,,,
3.8457031250,61,393.0000000000,,,
3.8476562500,61,361.0000000000,,,
3.8496093750,61,250.0000000000,,,
3.8515625000,61,64.0000000000,,,
3.8535156250,61,-86.0000000000,,,
3.8554687500,61,-72.0000000000,,,
3.8574218750,61,24.0000000000,,,
3.8593750000,61,-6.0000000000,,,
3.8613281250,61,-132.0000000000,,,
3.8632812500,61,-92.0000000000,,,
3.8652343750,61,39.0000000000,,,
3.8671875000,61,20.0000000000,,,
3.8691406250,61,-53.0000000000,,,
3.8710937500,61,53.0000000000,,,
3.8730468750,61,177.0000000000,,,
3.8750000000,62,214.0000000000,,,
3.8769531250,62,157.0000000000,,,
3.8789062500,62,-3.0000000000,,,
3.8808593750,62,6.0000000000,,,
3.8828125000,62,99.0000000000,,,
3.8847656250,62,-21.0000000000,,,
3.8867187500,62,-133.0000000000,,,
3.8886718750,62,6.0000000000,,,
3.8906250000,62,320.0000000000,,,
3.8925781250,62,393.0000000000,,,
3.8945312500,62,124.0000000000,,,
3.8964843750,62,-59.0000000000,,,
3.8984375000,62,244.0000000000,,,
3.9003906250,62,439.0000000000,,,
3.9023437500,62,39.0000000000,,,
3.9042968750,62,-266.0000000000,,,
3.9062500000,62,-263.0000000000,,,
3.9082031250,62,-172.0000000000,,,
3.9101562500,62,-178.0000000000,,,
3.9121093750,62,-275.0000000000,,,
3.9140625000,62,-450.0000000000,,,
3.9160156250,62,-436.0000000000,,,
3.9179687500,62,-182.0000000000,,,
3.9199218750,62,98.0000000000,,,
3.9218750000,62,471.0000000000,,,
3.9238281250,62,509.0000000000,,,
3.9257812500,62,51.0000000000,,,
3.9277343750,62,-261.0000000000,,,
3.9296875000,62,-378.0000000000,,,
3.9316406250,62,-297.0000000000,,,
3.9335937500,62,-252.0000000000,,,
3.9355468750,62,-361.0000000000,,,
3.9375000000,63,-299.0000000000,,,
3.9394531250,63,27.0000000000,,,
3.9414062500,63,205.0000000000,,,
3.9433593750,63,12.0000000000,,,
3.9453125000,63,-53.0000000000,,,
3.9472656250,63,97.0000000000,,,
3.9492187500,63,217.0000000000,,,
3.9511718750,63,90.0000000000,,,
3.9531250000,63,-130.0000000000,,,
3.9550781250,63,-173.0000000000,,,
3.9570312500,63,-54.0000000000,,,
3.9589843750,63,154.0000000000,,,
3.9609375000,63,90.0000000000,,,
3.9628906250,63,-87.0000000000,,,
3.9648437500,63,-123.0000000000,,,
3.9667968750,63,57.0000000000,,,
3.9687500000,63,204.0000000000,,,
3.9707031250,63,164.0000000000,,,
3.9726562500,63,92.0000000000,,,
3.9746093750,63,-210.0000000000,,,
3.9765625000,63,-270.0000000000,,,
3.9785156250,63,261.0000000000,,,
3.9804687500,63,701.0000000000,,,
3.9824218750,63,292.0000000000,,,
3.9843750000,63,-86.0000000000,,,
3.9863281250,63,103.0000000000,,,
3.9882812500,63,68.0000000000,,,
3.9902343750,63,-326.0000000000,,,
3.9921875000,63,-471.0000000000,,,
3.9941406250,63,-284.0000000000,,,
3.9960937500,63,-38.0000000000,,,
3.9980468750,63,-9.0000000000,,,
4.0000000000,64,-34.0000000000,,,
4.0019531250,64,-92.0000000000,,,
4.0039062500,64,-179.0000000000,,,
4.0058593750,64,-113.0000000000,,,
4.0078125000,64,61.0000000000,,,
4.0097656250,64,-18.0000000000,,,
4.0117187500,64,-34.0000000000,,,
4.0136718750,64,75.0000000000,,,
4.0156250000,64,-26.0000000000,,,
4.0175781250,64,-248.0000000000,,,
4.0195312500,64,-244.0000000000,,,
4.0214843750,64,-81.0000000000,,,
4.0234375000,64,-59.0000000000,,,
4.0253906250,64,-179.0000000000,,,
4.0273437500,64,-277.0000000000,,,
4.0292968750,64,-354.0000000000,,,
4.0312500000,64,-334.0000000000,,,
4.0332031250,64,-229.0000000000,,,
4.0351562500,64,-84.0000000000,,,
4.0371093750,64,89.0000000000,,,
4.0390625000,64,312.0000000000,,,
4.0410156250,64,471.0000000000,,,
4.0429687500,64,317.0000000000,,,
4.0449218750,64,112.0000000000,,,
4.0468750000,64,166.0000000000,,,
4.0488281250,64,291.0000000000,,,
4.0507812500,64,153.0000000000,,,
4.0527343750,64,-6.0000000000,,,
4.0546875000,64,-85.0000000000,,,
4.0566406250,64,-65.0000000000,,,
4.0585937500,64,109.0000000000,,,
4.0605468750,64,231.0000000000,,,
4.0625000000,65,107.0000000000,,,
4.0644531250,65,33.0000000000,,,
4.0664062500,65,97.0000000000,,,
4.0683593750,65,124.0000000000,,,
4.0703125000,65,192.0000000000,,,
4.0722656250,65,226.0000000000,,,
4.0742187500,65,129.0000000000,,,
4.0761718750,65,42.0000000000,,,
4.0781250000,65,37.0000000000,,,
4.0800781250,65,81.0000000000,,,
4.0820312500,65,170.0000000000,,,
4.0839843750,65,194.0000000000,,,
4.0859375000,65,150.0000000000,,,
4.0878906250,65,130.0000000000,,,
4.0898437500,65,113.0000000000,,,
4.0917968750,65,55.0000000000,,,
4.0937500000,65,24.0000000000,,,
4.0957031250,65,140.0000000000,,,
4.0976562500,65,243.0000000000,,,
4.0996093750,65,232.0000000000,,,
4.1015625000,65,150.0000000000,,,
4.1035156250,65,49.0000000000,,,
4.1054687500,65,29.0000000000,,,
4.1074218750,65,19.0000000000,,,
4.1093750000,65,-4.0000000000,,,
4.1113281250,65,38.0000000000,,,
4.1132812500,65,98.0000000000,,,
4.1152343750,65,123.0000000000,,,
4.1171875000,65,70.0000000000,,,
4.1191406250,65,27.0000000000,,,
4.1210937500,65,75.0000000000,,,
4.1230468750,65,161.0000000000,,,
4.1250000000,66,220.0000000000,,,
4.1269531250,66,215.0000000000,,,
4.1289062500,66,145.0000000000,,,
4.1308593750,66,40.0000000000,,,
4.1328125000,66,-46.0000000000,,,
4.1347656250,66,-76.0000000000,,,
4.1367187500,66,-37.0000000000,,,
4.1386718750,66,11.0000000000,,,
4.1406250000,66,20.0000000000,,,
4.1425781250,66,32.0000000000,,,
4.1445312500,66,61.0000000000,,,
4.1464843750,66,81.0000000000,,,
4.1484375000,66,93.0000000000,,,
4.1503906250,66,93.0000000000,,,
4.1523437500,66,116.0000000000,,,
4.1542968750,66,140.0000000000,,,
4.1562500000,66,124.0000000000,,,
4.1582031250,66,71.0000000000,,,
4.1601562500,66,41.0000000000,,,
4.1621093750,66,69.0000000000,,,
4.1640625000,66,105.0000000000,,,
4.1660156250,66,102.0000000000,,,
4.1679687500,66,82.0000000000,,,
4.1699218750,66,85.0000000000,,,
4.1718750000,66,107.0000000000,,,
4.1738281250,66,112.0000000000,,,
4.1757812500,66,87.0000000000,,,
4.1777343750,66,11.0000000000,,,
4.1796875000,66,-62.0000000000,,,
4.1816406250,66,-113.0000000000,,,
4.1835937500,66,-120.0000000000,,,
4.1855468750,66,-98.0000000000,,,
4.1875000000,67,-46.0000000000,,,
4.1894531250,67,2.0000000000,,,
4.1914062500,67,23.0000000000,,,
4.1933593750,67,41.0000000000,,,
4.1953125000,67,68.0000000000,,,
4.1972656250,67,89.0000000000,,,
4.1992187500,67,115.0000000000,,,
4.2011718750,67,112.0000000000,,,
4.2031250000,67,81.0000000000,,,
4.2050781250,67,51.0000000000,,,
4.2070312500,67,-6.0000000000,,,
4.2089843750,67,-120.0000000000,,,
4.2109375000,67,-204.0000000000,,,
4.2128906250,67,-180.0000000000,,,
4.2148437500,67,-109.0000000000,,,
4.2167968750,67,-60.0000000000,,,
4.2187500000,67,-14.0000000000,,,
4.2207031250,67,11.0000000000,,,
4.2226562500,67,56.0000000000,,,
4.2246093750,67,122.0000000000,,,
4.2265625000,67,164.0000000000,,,
4.2285156250,67,145.0000000000,,,
4.2304687500,67,86.0000000000,,,
4.2324218750,67,19.0000000000,,,
4.2343750000,67,-19.0000000000,,,
4.2363281250,67,-28.0000000000,,,
4.2382812500,67,-4.0000000000,,,
4.2402343750,67,-11.0000000000,,,
4.2421875000,67,-42.0000000000,,,
4.2441406250,67,42.0000000000,,,
4.2460937500,67,112.0000000000,,,
4.2480468750,67,58.0000000000,,,
4.2500000000,68,36.0000000000,,,
4.2519531250,68,60.0000000000,,,
4.2539062500,68,54.0000000000,,,
4.2558593750,68,16.0000000000,,,
4.2578125000,68,1.0000000000,,,
4.2597656250,68,41.0000000000,,,
4.2617187500,68,89.0000000000,,,
4.2636718750,68,119.0000000000,,,
4.2656250000,68,116.0000000000,,,
4.2675781250,68,132.0000000000,,,
4.2695312500,68,155.0000000000,,,
4.2714843750,68,184.0000000000,,,
4.2734375000,68,219.0000000000,,,
4.2753906250,68,157.0000000000,,,
4.2773437500,68,58.0000000000,,,
4.2792968750,68,4.0000000000,,,
4.2812500000,68,34.0000000000,,,
4.2832031250,68,68.0000000000,,,
4.2851562500,68,37.0000000000,,,
4.2871093750,68,-6.0000000000,,,
4.2890625000,68,-7.0000000000,,,
4.2910156250,68,11.0000000000,,,
4.2929687500,68,8.0000000000,,,
4.2949218750,68,12.0000000000,,,
4.2968750000,68,22.0000000000,,,
4.2988281250,68,26.0000000000,,,
4.3007812500,68,36.0000000000,,,
4.3027343750,68,128.0000000000,,,
4.3046875000,68,196.0000000000,,,
4.3066406250,68,156.0000000000,,,
4.3085937500,68,122.0000000000,,,
4.3105468750,68,118.0000000000,,,
4.3125000000,69,98.0000000000,,,
4.3144531250,69,93.0000000000,,,
4.3164062500,69,150.0000000000,,,
4.3183593750,69,192.0000000000,,,
4.3203125000,69,118.0000000000,,,
4.3222656250,69,50.0000000000,,,
4.3242187500,69,65.0000000000,,,
4.3261718750,69,105.0000000000,,,
4.3281250000,69,96.0000000000,,,
4.3300781250,69,39.0000000000,,,
4.3320312500,69,-21.0000000000,,,
4.3339843750,69,-53.0000000000,,,
4.3359375000,69,-6.0000000000,,,
4.3378906250,69,72.0000000000,,,
4.3398437500,69,97.0000000000,,,
4.3417968750,69,80.0000000000,,,
4.3437500000,69,52.0000000000,,,
4.3457031250,69,-20.0000000000,,,
4.3476562500,69,-51.0000000000,,,
4.3496093750,69,16.0000000000,,,
4.3515625000,69,72.0000000000,,,
4.3535156250,69,60.0000000000,,,
4.3554687500,69,0.0000000000,,,
4.3574218750,69,-44.0000000000,,,
4.3593750000,69,2.0000000000,,,
4.3613281250,69,84.0000000000,,,
4.3632812500,69,137.0000000000,,,
4.3652343750,69,81.0000000000,,,
4.3671875000,69,-9.0000000000,,,
4.3691406250,69,-69.0000000000,,,
4.3710937500,69,-49.0000000000,,,
4.3730468750,69,19.0000000000,,,
4.3750000000,70,13.0000000000,,,
4.3769531250,70,2.0000000000,,,
4.3789062500,70,24.0000000000,,,
4.3808593750,70,28.0000000000,,,
4.3828125000,70,40.0000000000,,,
4.3847656250,70,53.0000000000,,,
4.3867187500,70,38.0000000000,,,
4.3886718750,70,39.0000000000,,,
4.3906250000,70,57.0000000000,,,
4.3925781250,70,32.0000000000,,,
4.3945312500,70,12.0000000000,,,
4.3964843750,70,18.0000000000,,,
4.3984375000,70,52.0000000000,,,
4.4003906250,70,66.0000000000,,,
4.4023437500,70,25.0000000000,,,
4.4042968750,70,-13.0000000000,,,
4.4062500000,70,37.0000000000,,,
4.4082031250,70,137.0000000000,,,
4.4101562500,70,149.0000000000,,,
4.4121093750,70,48.0000000000,,,
4.4140625000,70,-20.0000000000,,,
4.4160156250,70,-10.0000000000,,,
4.4179687500,70,24.0000000000,,,
4.4199218750,70,59.0000000000,,,
4.4218750000,70,64.0000000000,,,
4.4238281250,70,80.0000000000,,,
4.4257812500,70,149.0000000000,,,
4.4277343750,70,187.0000000000,,,
4.4296875000,70,140.0000000000,,,
4.4316406250,70,56.0000000000,,,
4.4335937500,70,13.0000000000,,,
4.4355468750,70,-14.0000000000,,,
4.4375000000,71,-40.0000000000,,,
4.4394531250,71,-33.0000000000,,,
4.4414062500,71,-9.0000000000,,,
4.4433593750,71,12.0000000000,,,
4.4453125000,71,56.0000000000,,,
4.4472656250,71,98.0000000000,,,
4.4492187500,71,125.0000000000,,,
4.4511718750,71,156.0000000000,,,
4.4531250000,71,156.0000000000,,,
4.4550781250,71,88.0000000000,,,
4.4570312500,71,1.0000000000,,,
4.4589843750,71,-67.0000000000,,,
4.4609375000,71,-62.0000000000,,,
4.4628906250,71,-13.0000000000,,,
4.4648437500,71,49.0000000000,,,
4.4667968750,71,101.0000000000,,,
4.4687500000,71,122.0000000000,,,
4.4707031250,71,135.0000000000,,,
4.4726562500,71,116.0000000000,,,
4.4746093750,71,65.0000000000,,,
4.4765625000,71,21.0000000000,,,
4.4785156250,71,29.0000000000,,,
4.4804687500,71,64.0000000000,,,
4.4824218750,71,40.0000000000,,,
4.4843750000,71,-10.0000000000,,,
4.4863281250,71,-51.0000000000,,,
4.4882812500,71,-7.0000000000,,,
4.4902343750,71,86.0000000000,,,
4.4921875000,71,88.0000000000,,,
4.4941406250,71,23.0000000000,,,
4.4960937500,71,-22.0000000000,,,
4.4980468750,71,-11.0000000000,,,
4.5000000000,72,41.0000000000,,,
4.5019531250,72,75.0000000000,,,
4.5039062500,72,44.0000000000,,,
4.5058593750,72,13.0000000000,,,
4.5078125000,72,42.0000000000,,,
4.5097656250,72,105.0000000000,,,
4.5117187500,72,119.0000000000,,,
4.5136718750,72,88.0000000000,,,
4.5156250000,72,70.0000000000,,,
4.5175781250,72,55.0000000000,,,
4.5195312500,72,60.0000000000,,,
4.5214843750,72,86.0000000000,,,
4.5234375000,72,97.0000000000,,,
4.5253906250,72,55.0000000000,,,
4.5273437500,72,28.0000000000,,,
4.5292968750,72,34.0000000000,,,
4.5312500000,72,36.0000000000,,,
4.5332031250,72,17.0000000000,,,
4.5351562500,72,5.0000000000,,,
4.5371093750,72,11.0000000000,,,
4.5390625000,72,6.0000000000,,,
4.5410156250,72,-21.0000000000,,,
4.5429687500,72,-11.0000000000,,,
4.5449218750,72,1.0000000000,,,
4.5468750000,72,-40.0000000000,,,
4.5488281250,72,-84.0000000000,,,
4.5507812500,72,-100.0000000000,,,
4.5527343750,72,-85.0000000000,,,
4.5546875000,72,-58.0000000000,,,
4.5566406250,72,-2.0000000000,,,
4.5585937500,72,28.0000000000,,,
4.5605468750,72,18.0000000000,,,
4.5625000000,73,-10.0000000000,,,
4.5644531250,73,-6.0000000000,,,
4.5664062500,73,8.0000000000,,,
4.5683593750,73,-6.0000000000,,,
4.5703125000,73,-56.0000000000,,,
4.5722656250,73,-71.0000000000,,,
4.5742187500,73,-11.0000000000,,,
4.5761718750,73,41.0000000000,,,
4.5781250000,73,50.0000000000,,,
4.5800781250,73,74.0000000000,,,
4.5820312500,73,124.0000000000,,,
4.5839843750,73,169.0000000000,,,
4.5859375000,73,202.0000000000,,,
4.5878906250,73,192.0000000000,,,
4.5898437500,73,136.0000000000,,,
4.5917968750,73,89.0000000000,,,
4.5937500000,73,73.0000000000,,,
4.5957031250,73,65.0000000000,,,
4.5976562500,73,27.0000000000,,,
4.5996093750,73,-13.0000000000,,,
4.6015625000,73,-14.0000000000,,,
4.6035156250,73,11.0000000000,,,
4.6054687500,73,26.0000000000,,,
4.6074218750,73,49.0000000000,,,
4.6093750000,73,53.0000000000,,,
4.6113281250,73,42.0000000000,,,
4.6132812500,73,53.0000000000,,,
4.6152343750,73,85.0000000000,,,
4.6171875000,73,106.0000000000,,,
4.6191406250,73,96.0000000000,,,
4.6210937500,73,66.0000000000,,,
4.6230468750,73,65.0000000000,,,
4.6250000000,74,89.0000000000,,,
4.6269531250,74,122.0000000000,,,
4.6289062500,74,139.0000000000,,,
4.6308593750,74,161.0000000000,,,
4.6328125000,74,155.0000000000,,,
4.6347656250,74,123.0000000000,,,
4.6367187500,74,69.0000000000,,,
4.6386718750,74,58.0000000000,,,
4.6406250000,74,85.0000000000,,,
4.6425781250,74,103.0000000000,,,
4.6445312500,74,100.0000000000,,,
4.6464843750,74,103.0000000000,,,
4.6484375000,74,118.0000000000,,,
4.6503906250,74,107.0000000000,,,
4.6523437500,74,65.0000000000,,,
4.6542968750,74,7.0000000000,,,
4.6562500000,74,23.0000000000,,,
4.6582031250,74,73.0000000000,,,
4.6601562500,74,67.0000000000,,,
4.6621093750,74,-2.0000000000,,,
4.6640625000,74,-12.0000000000,,,
4.6660156250,74,28.0000000000,,,
4.6679687500,74,61.0000000000,,,
4.6699218750,74,101.0000000000,,,
4.6718750000,74,152.0000000000,,,
4.6738281250,74,202.0000000000,,,
4.6757812500,74,203.0000000000,,,
4.6777343750,74,151.0000000000,,,
4.6796875000,74,70.0000000000,,,
4.6816406250,74,20.0000000000,,,
4.6835937500,74,53.0000000000,,,
4.6855468750,74,72.0000000000,,,
4.6875000000,75,18.0000000000,,,
4.6894531250,75,-38.0000000000,,,
4.6914062500,75,-44.0000000000,,,
4.6933593750,75,-34.0000000000,,,
4.6953125000,75,-23.0000000000,,,
4.6972656250,75,-13.0000000000,,,
4.6992187500,75,17.0000000000,,,
4.7011718750,75,84.0000000000,,,
4.7031250000,75,118.0000000000,,,
4.7050781250,75,100.0000000000,,,
4.7070312500,75,66.0000000000,,,
4.7089843750,75,44.0000000000,,,
4.7109375000,75,33.0000000000,,,
4.7128906250,75,32.0000000000,,,
4.7148437500,75,20.0000000000,,,
4.7167968750,75,20.0000000000,,,
4.7187500000,75,33.0000000000,,,
4.7207031250,75,10.0000000000,,,
4.7226562500,75,-9.0000000000,,,
4.7246093750,75,6.0000000000,,,
4.7265625000,75,10.0000000000,,,
4.7285156250,75,64.0000000000,,,
4.7304687500,75,132.0000000000,,,
4.7324218750,75,147.0000000000,,,
4.7343750000,75,135.0000000000,,,
4.7363281250,75,137.0000000000,,,
4.7382812500,75,148.0000000000,,,
4.7402343750,75,155.0000000000,,,
4.7421875000,75,164.0000000000,,,
4.7441406250,75,148.0000000000,,,
4.7460937500,75,116.0000000000,,,
4.7480468750,75,97.0000000000,,,
4.7500000000,76,76.0000000000,,,
4.7519531250,76,44.0000000000,,,
4.7539062500,76,65.0000000000,,,
4.7558593750,76,114.0000000000,,,
4.7578125000,76,107.0000000000,,,
4.7597656250,76,82.0000000000,,,
4.7617187500,76,82.0000000000,,,
4.7636718750,76,103.0000000000,,,
4.7656250000,76,90.0000000000,,,
4.7675781250,76,10.0000000000,,,
4.7695312500,76,-54.0000000000,,,
4.7714843750,76,-24.0000000000,,,
4.7734375000,76,67.0000000000,,,
4.7753906250,76,124.0000000000,,,
4.7773437500,76,101.0000000000,,,
4.7792968750,76,28.0000000000,,,
4.7812500000,76,-21.0000000000,,,
4.7832031250,76,6.0000000000,,,
4.7851562500,76,75.0000000000,,,
4.7871093750,76,72.0000000000,,,
4.7890625000,76,12.0000000000,,,
4.7910156250,76,-37.0000000000,,,
4.7929687500,76,-74.0000000000,,,
4.7949218750,76,-88.0000000000,,,
4.7968750000,76,-72.0000000000,,,
4.7988281250,76,-62.0000000000,,,
4.8007812500,76,-75.0000000000,,,
4.8027343750,76,-71.0000000000,,,
4.8046875000,76,-27.0000000000,,,
4.8066406250,76,2.0000000000,,,
4.8085937500,76,-5.0000000000,,,
4.8105468750,76,-25.0000000000,,,
4.8125000000,77,-42.0000000000,,,
4.8144531250,77,-41.0000000000,,,
4.8164062500,77,-20.0000000000,,,
4.8183593750,77,2.0000000000,,,
4.8203125000,77,23.0000000000,,,
4.8222656250,77,42.0000000000,,,
4.8242187500,77,37.0000000000,,,
4.8261718750,77,9.0000000000,,,
4.8281250000,77,-4.0000000000,,,
4.8300781250,77,18.0000000000,,,
4.8320312500,77,26.0000000000,,,
4.8339843750,77,-2.0000000000,,,
4.8359375000,77,-33.0000000000,,,
4.8378906250,77,-54.0000000000,,,
4.8398437500,77,-62.0000000000,,,
4.8417968750,77,-52.0000000000,,,
4.8437500000,77,-22.0000000000,,,
4.8457031250,77,8.0000000000,,,
4.8476562500,77,32.0000000000,,,
4.8496093750,77,57.0000000000,,,
4.8515625000,77,114.0000000000,,,
4.8535156250,77,179.0000000000,,,
4.8554687500,77,214.0000000000,,,
4.8574218750,77,229.0000000000,,,
4.8593750000,77,234.0000000000,,,
4.8613281250,77,212.0000000000,,,
4.8632812500,77,181.0000000000,,,
4.8652343750,77,164.0000000000,,,
4.8671875000,77,155.0000000000,,,
4.8691406250,77,150.0000000000,,,
4.8710937500,77,135.0000000000,,,
4.8730468750,77,89.0000000000,,,
4.8750000000,78,35.0000000000,,,
4.8769531250,78,-3.0000000000,,,
4.8789062500,78,-5.0000000000,,,
4.8808593750,78,4.0000000000,,,
4.8828125000,78,-2.0000000000,,,
4.8847656250,78,-18.0000000000,,,
4.8867187500,78,-25.0000000000,,,
4.8886718750,78,-39.0000000000,,,
4.8906250000,78,-44.0000000000,,,
4.8925781250,78,-40.0000000000,,,
4.8945312500,78,-8.0000000000,,,
4.8964843750,78,-4.0000000000,,,
4.8984375000,78,-40.0000000000,,,
4.9003906250,78,-68.0000000000,,,
4.9023437500,78,-78.0000000000,,,
4.9042968750,78,-83.0000000000,,,
4.9062500000,78,-37.0000000000,,,
4.9082031250,78,9.0000000000,,,
4.9101562500,78,20.0000000000,,,
4.9121093750,78,21.0000000000,,,
4.9140625000,78,20.0000000000,,,
4.9160156250,78,18.0000000000,,,
4.9179687500,78,35.0000000000,,,
4.9199218750,78,28.0000000000,,,
4.9218750000,78,11.0000000000,,,
4.9238281250,78,13.0000000000,,,
4.9257812500,78,28.0000000000,,,
4.9277343750,78,69.0000000000,,,
4.9296875000,78,117.0000000000,,,
4.9316406250,78,122.0000000000,,,
4.9335937500,78,85.0000000000,,,
4.9355468750,78,34.0000000000,,,
4.9375000000,79,34.0000000000,,,
4.9394531250,79,122.0000000000,,,
4.9414062500,79,193.0000000000,,,
4.9433593750,79,169.0000000000,,,
4.9453125000,79,107.0000000000,,,
4.9472656250,79,85.0000000000,,,
4.9492187500,79,136.0000000000,,,
4.9511718750,79,196.0000000000,,,
4.9531250000,79,202.0000000000,,,
4.9550781250,79,168.0000000000,,,
4.9570312500,79,108.0000000000,,,
4.9589843750,79,50.0000000000,,,
4.9609375000,79,19.0000000000,,,
4.9628906250,79,10.0000000000,,,
4.9648437500,79,12.0000000000,,,
4.9667968750,79,37.0000000000,,,
4.9687500000,79,60.0000000000,,,
4.9707031250,79,43.0000000000,,,
4.9726562500,79,36.0000000000,,,
4.9746093750,79,49.0000000000,,,
4.9765625000,79,50.0000000000,,,
4.9785156250,79,60.0000000000,,,
4.9804687500,79,92.0000000000,,,
4.9824218750,79,91.0000000000,,,
4.9843750000,79,98.0000000000,,,
4.9863281250,79,150.0000000000,,,
4.9882812500,79,198.0000000000,,,
4.9902343750,79,202.0000000000,,,
4.9921875000,79,188.0000000000,,,
4.9941406250,79,162.0000000000,,,
4.9960937500,79,128.0000000000,,,
4.9980468750,79,108.0000000000,,,
5.0000000000,80,131.0000000000,,,
5.0019531250,80,172.0000000000,,,
5.0039062500,80,193.0000000000,,,
5.0058593750,80,184.0000000000,,,
5.0078125000,80,162.0000000000,,,
5.0097656250,80,124.0000000000,,,
5.0117187500,80,108.0000000000,,,
5.0136718750,80,118.0000000000,,,
5.0156250000,80,124.0000000000,,,
5.0175781250,80,90.0000000000,,,
5.0195312500,80,53.0000000000,,,
5.0214843750,80,41.0000000000,,,
5.0234375000,80,37.0000000000,,,
5.0253906250,80,59.0000000000,,,
5.0273437500,80,83.0000000000,,,
5.0292968750,80,71.0000000000,,,
5.0312500000,80,71.0000000000,,,
5.0332031250,80,70.0000000000,,,
5.0351562500,80,70.0000000000,,,
5.0371093750,80,100.0000000000,,,
5.0390625000,80,108.0000000000,,,
5.0410156250,80,71.0000000000,,,
5.0429687500,80,54.0000000000,,,
5.0449218750,80,70.0000000000,,,
5.0468750000,80,83.0000000000,,,
5.0488281250,80,84.0000000000,,,
5.0507812500,80,75.0000000000,,,
5.0527343750,80,55.0000000000,,,
5.0546875000,80,20.0000000000,,,
5.0566406250,80,-22.0000000000,,,
5.0585937500,80,-51.0000000000,,,
5.0605468750,80,-27.0000000000,,,
5.0625000000,81,48.0000000000,,,
5.0644531250,81,120.0000000000,,,
5.0664062500,81,144.0000000000,,,
5.0683593750,81,113.0000000000,,,
5.0703125000,81,73.0000000000,,,
5.0722656250,81,72.0000000000,,,
5.0742187500,81,116.0000000000,,,
5.0761718750,81,162.0000000000,,,
5.0781250000,81,170.0000000000,,,
5.0800781250,81,135.0000000000,,,
5.0820312500,81,105.0000000000,,,
5.0839843750,81,131.0000000000,,,
5.0859375000,81,188.0000000000,,,
5.0878906250,81,246.0000000000,,,
5.0898437500,81,256.0000000000,,,
5.0917968750,81,204.0000000000,,,
5.0937500000,81,146.0000000000,,,
5.0957031250,81,100.0000000000,,,
5.0976562500,81,84.0000000000,,,
5.0996093750,81,120.0000000000,,,
5.1015625000,81,164.0000000000,,,
5.1035156250,81,198.0000000000,,,
5.1054687500,81,215.0000000000,,,
5.1074218750,81,208.0000000000,,,
5.1093750000,81,200.0000000000,,,
5.1113281250,81,200.0000000000,,,
5.1132812500,81,170.0000000000,,,
5.1152343750,81,118.0000000000,,,
5.1171875000,81,86.0000000000,,,
5.1191406250,81,80.0000000000,,,
5.1210937500,81,56.0000000000,,,
5.1230468750,81,26.0000000000,,,
5.1250000000,82,3.0000000000,,,
5.1269531250,82,17.0000000000,,,
5.1289062500,82,40.0000000000,,,
5.1308593750,82,65.0000000000,,,
5.1328125000,82,57.0000000000,,,
5.1347656250,82,34.0000000000,,,
5.1367187500,82,20.0000000000,,,
5.1386718750,82,34.0000000000,,,
5.1406250000,82,65.0000000000,,,
5.1425781250,82,66.0000000000,,,
5.1445312500,82,32.0000000000,,,
5.1464843750,82,10.0000000000,,,
5.1484375000,82,-17.0000000000,,,
5.1503906250,82,-65.0000000000,,,
5.1523437500,82,-89.0000000000,33553,5.1523437500,0.0019531250
5.1542968750,82,-89.0000000000,33554,5.1542968750,0.0000000000
5.1562500000,82,-90.0000000000,,,
5.1582031250,82,-92.0000000000,,,
5.1601562500,82,-124.0000000000,,,
5.1621093750,82,-148.0000000000,,,
5.1640625000,82,-136.0000000000,,,
5.1660156250,82,-86.0000000000,,,
5.1679687500,82,-55.0000000000,,,
5.1699218750,82,-75.0000000000,,,
5.1718750000,82,-118.0000000000,,,
5.1738281250,82,-151.0000000000,,,
5.1757812500,82,-150.0000000000,,,
5.1777343750,82,-142.0000000000,,,
5.1796875000,82,-119.0000000000,,,
5.1816406250,82,-102.0000000000,,,
5.1835937500,82,-118.0000000000,,,
5.1855468750,82,-124.0000000000,,,
5.1875000000,83,-100.0000000000,,,
5.1894531250,83,-78.0000000000,,,
5.1914062500,83,-70.0000000000,,,
5.1933593750,83,-59.0000000000,,,
5.1953125000,83,-58.0000000000,,,
5.1972656250,83,-88.0000000000,,,
5.1992187500,83,-97.0000000000,,,
5.2011718750,83,-77.0000000000,,,
5.2031250000,83,-59.0000000000,,,
5.2050781250,83,-41.0000000000,,,
5.2070312500,83,-35.0000000000,,,
5.2089843750,83,-40.0000000000,,,
5.2109375000,83,-52.0000000000,,,
5.2128906250,83,-61.0000000000,,,
5.2148437500,83,-54.0000000000,,,
5.2167968750,83,-44.0000000000,,,
5.2187500000,83,-29.0000000000,,,
5.2207031250,83,-2.0000000000,,,
5.2226562500,83,16.0000000000,,,
5.2246093750,83,19.0000000000,,,
5.2265625000,83,24.0000000000,,,
5.2285156250,83,49.0000000000,,,
5.2304687500,83,68.0000000000,,,
5.2324218750,83,61.0000000000,,,
5.2343750000,83,40.0000000000,,,
5.2363281250,83,42.0000000000,,,
5.2382812500,83,58.0000000000,,,
5.2402343750,83,59.0000000000,,,
5.2421875000,83,65.0000000000,,,
5.2441406250,83,64.0000000000,,,
5.2460937500,83,34.0000000000,,,
5.2480468750,83,10.0000000000,,,
5.2500000000,84,13.0000000000,,,
5.2519531250,84,2.0000000000,,,
5.2539062500,84,-29.0000000000,,,
5.2558593750,84,-40.0000000000,,,
5.2578125000,84,-37.0000000000,,,
5.2597656250,84,-49.0000000000,,,
5.2617187500,84,-51.0000000000,,,
5.2636718750,84,-24.0000000000,,,
5.2656250000,84,-5.0000000000,,,
5.2675781250,84,-38.0000000000,,,
5.2695312500,84,-81.0000000000,,,
5.2714843750,84,-76.0000000000,,,
5.2734375000,84,-59.0000000000,,,
5.2753906250,84,-53.0000000000,,,
5.2773437500,84,-58.0000000000,,,
5.2792968750,84,-56.0000000000,,,
5.2812500000,84,-22.0000000000,,,
5.2832031250,84,3.0000000000,,,
5.2851562500,84,-9.0000000000,,,
5.2871093750,84,-28.0000000000,,,
5.2890625000,84,-38.0000000000,,,
5.2910156250,84,-33.0000000000,,,
5.2929687500,84,-27.0000000000,,,
5.2949218750,84,-22.0000000000,,,
5.2968750000,84,-13.0000000000,,,
5.2988281250,84,-12.0000000000,,,
5.3007812500,84,-11.0000000000,,,
5.3027343750,84,1.0000000000,,,
5.3046875000,84,17.0000000000,,,
5.3066406250,84,5.0000000000,,,
5.3085937500,84,-21.0000000000,,,
5.3105468750,84,-24.0000000000,,,
5.3125000000,85,-24.0000000000,,,
5.3144531250,85,-39.0000000000,,,
5.3164062500,85,-61.0000000000,,,
5.3183593750,85,-89.0000000000,,,
5.3203125000,85,-92.0000000000,,,
5.3222656250,85,-54.0000000000,,,
5.3242187500,85,-22.0000000000,,,
5.3261718750,85,-28.0000000000,,,
5.3281250000,85,-57.0000000000,,,
5.3300781250,85,-86.0000000000,,,
5.3320312500,85,-97.0000000000,,,
5.3339843750,85,-94.0000000000,,,
5.3359375000,85,-102.0000000000,,,
5.3378906250,85,-110.0000000000,,,
5.3398437500,85,-119.0000000000,,,
5.3417968750,85,-106.0000000000,,,
5.3437500000,85,-87.0000000000,,,
5.3457031250,85,-62.0000000000,,,
5.3476562500,85,-34.0000000000,,,
5.3496093750,85,-22.0000000000,,,
5.3515625000,85,-19.0000000000,,,
5.3535156250,85,2.0000000000,,,
5.3554687500,85,28.0000000000,,,
5.3574218750,85,49.0000000000,,,
5.3593750000,85,51.0000000000,,,
5.3613281250,85,40.0000000000,,,
5.3632812500,85,24.0000000000,,,
5.3652343750,85,0.0000000000,,,
5.3671875000,85,-22.0000000000,,,
5.3691406250,85,-62.0000000000,,,
5.3710937500,85,-113.0000000000,,,
5.3730468750,85,-105.0000000000,,,
5.3750000000,86,-23.0000000000,,,
5.3769531250,86,50.0000000000,,,
5.3789062500,86,73.0000000000,,,
5.3808593750,86,76.0000000000,,,
5.3828125000,86,81.0000000000,,,
5.3847656250,86,92.0000000000,,,
5.3867187500,86,119.0000000000,,,
5.3886718750,86,109.0000000000,,,
5.3906250000,86,50.0000000000,,,
5.3925781250,86,2.0000000000,,,
5.3945312500,86,-25.0000000000,,,
5.3964843750,86,-54.0000000000,,,
5.3984375000,86,-51.0000000000,,,
5.4003906250,86,-11.0000000000,,,
5.4023437500,86,6.0000000000,,,
5.4042968750,86,6.0000000000,,,
5.4062500000,86,-14.0000000000,,,
5.4082031250,86,-42.0000000000,,,
5.4101562500,86,-53.0000000000,,,
5.4121093750,86,-57.0000000000,,,
5.4140625000,86,-52.0000000000,,,
5.4160156250,86,-41.0000000000,,,
5.4179687500,86,-33.0000000000,,,
5.4199218750,86,-34.0000000000,,,
5.4218750000,86,-29.0000000000,,,
5.4238281250,86,-38.0000000000,,,
5.4257812500,86,-57.0000000000,,,
5.4277343750,86,-71.0000000000,,,
5.4296875000,86,-77.0000000000,,,
5.4316406250,86,-86.0000000000,,,
5.4335937500,86,-108.0000000000,,,
5.4355468750,86,-124.0000000000,,,
5.4375000000,87,-117.0000000000,,,
5.4394531250,87,-82.0000000000,,,
5.4414062500,87,-81.0000000000,,,
5.4433593750,87,-114.0000000000,,,
5.4453125000,87,-142.0000000000,,,
5.4472656250,87,-150.0000000000,,,
5.4492187500,87,-135.0000000000,,,
5.4511718750,87,-117.0000000000,,,
5.4531250000,87,-108.0000000000,,,
5.4550781250,87,-118.0000000000,,,
5.4570312500,87,-130.0000000000,,,
5.4589843750,87,-125.0000000000,,,
5.4609375000,87,-100.0000000000,,,
5.4628906250,87,-66.0000000000,,,
5.4648437500,87,-21.0000000000,,,
5.4667968750,87,-4.0000000000,,,
5.4687500000,87,-38.0000000000,,,
5.4707031250,87,-67.0000000000,,,
5.4726562500,87,-61.0000000000,,,
5.4746093750,87,-53.0000000000,,,
5.4765625000,87,-49.0000000000,,,
5.4785156250,87,-40.0000000000,,,
5.4804687500,87,-25.0000000000,,,
5.4824218750,87,-7.0000000000,,,
5.4843750000,87,20.0000000000,,,
5.4863281250,87,28.0000000000,,,
5.4882812500,87,42.0000000000,,,
5.4902343750,87,56.0000000000,,,
5.4921875000,87,42.0000000000,,,
5.4941406250,87,53.0000000000,,,
5.4960937500,87,70.0000000000,,,
5.4980468750,87,49.0000000000,,,
5.5000000000,88,19.0000000000,,,
5.5019531250,88,-9.0000000000,,,
5.5039062500,88,-17.0000000000,,,
5.5058593750,88,21.0000000000,,,
5.5078125000,88,51.0000000000,,,
5.5097656250,88,55.0000000000,,,
5.5117187500,88,73.0000000000,,,
5.5136718750,88,102.0000000000,,,
5.5156250000,88,112.0000000000,,,
5.5175781250,88,118.0000000000,,,
5.5195312500,88,112.0000000000,,,
5.5214843750,88,117.0000000000,,,
5.5234375000,88,125.0000000000,,,
5.5253906250,88,92.0000000000,,,
5.5273437500,88,57.0000000000,,,
5.5292968750,88,54.0000000000,,,
5.5312500000,88,56.0000000000,,,
5.5332031250,88,56.0000000000,,,
5.5351562500,88,73.0000000000,,,
5.5371093750,88,89.0000000000,,,
5.5390625000,88,105.0000000000,,,
5.5410156250,88,122.0000000000,,,
5.5429687500,88,122.0000000000,,,
5.5449218750,88,115.0000000000,,,
5.5468750000,88,114.0000000000,,,
5.5488281250,88,129.0000000000,,,
5.5507812500,88,114.0000000000,,,
5.5527343750,88,84.0000000000,,,
5.5546875000,88,82.0000000000,,,
5.5566406250,88,107.0000000000,,,
5.5585937500,88,118.0000000000,,,
5.5605468750,88,105.0000000000,,,
5.5625000000,89,76.0000000000,,,
5.5644531250,89,48.0000000000,,,
5.5664062500,89,49.0000000000,,,
5.5683593750,89,54.0000000000,,,
5.5703125000,89,52.0000000000,,,
5.5722656250,89,64.0000000000,,,
5.5742187500,89,84.0000000000,,,
5.5761718750,89,86.0000000000,,,
5.5781250000,89,64.0000000000,,,
5.5800781250,89,89.0000000000,,,
5.5820312500,89,139.0000000000,,,
5.5839843750,89,163.0000000000,,,
5.5859375000,89,155.0000000000,,,
5.5878906250,89,132.0000000000,,,
5.5898437500,89,101.0000000000,,,
5.5917968750,89,115.0000000000,,,
5.5937500000,89,130.0000000000,,,
5.5957031250,89,137.0000000000,,,
5.5976562500,89,150.0000000000,,,
5.5996093750,89,125.0000000000,,,
5.6015625000,89,69.0000000000,,,
5.6035156250,89,43.0000000000,,,
5.6054687500,89,61.0000000000,,,
5.6074218750,89,98.0000000000,,,
5.6093750000,89,108.0000000000,,,
5.6113281250,89,101.0000000000,,,
5.6132812500,89,100.0000000000,,,
5.6152343750,89,119.0000000000,,,
5.6171875000,89,129.0000000000,,,
5.6191406250,89,115.0000000000,,,
5.6210937500,89,118.0000000000,,,
5.6230468750,89,144.0000000000,,,
5.6250000000,90,145.0000000000,,,
5.6269531250,90,107.0000000000,,,
5.6289062500,90,84.0000000000,,,
5.6308593750,90,98.0000000000,,,
5.6328125000,90,136.0000000000,,,
5.6347656250,90,132.0000000000,,,
5.6367187500,90,118.0000000000,,,
5.6386718750,90,115.0000000000,,,
5.6406250000,90,73.0000000000,,,
5.6425781250,90,26.0000000000,,,
5.6445312500,90,21.0000000000,,,
5.6464843750,90,56.0000000000,,,
5.6484375000,90,70.0000000000,,,
5.6503906250,90,41.0000000000,,,
5.6523437500,90,55.0000000000,,,
5.6542968750,90,92.0000000000,,,
5.6562500000,90,129.0000000000,,,
5.6582031250,90,139.0000000000,,,
5.6601562500,90,121.0000000000,,,
5.6621093750,90,84.0000000000,,,
5.6640625000,90,45.0000000000,,,
5.6660156250,90,32.0000000000,,,
5.6679687500,90,39.0000000000,,,
5.6699218750,90,33.0000000000,,,
5.6718750000,90,17.0000000000,,,
5.6738281250,90,4.0000000000,,,
5.6757812500,90,2.0000000000,,,
5.6777343750,90,-8.0000000000,,,
5.6796875000,90,-77.0000000000,,,
5.6816406250,90,-147.0000000000,,,
5.6835937500,90,-113.0000000000,,,
5.6855468750,90,-37.0000000000,,,
5.6875000000,91,-34.0000000000,,,
5.6894531250,91,-67.0000000000,,,
5.6914062500,91,-43.0000000000,,,
5.6933593750,91,8.0000000000,,,
5.6953125000,91,37.0000000000,,,
5.6972656250,91,50.0000000000,,,
5.6992187500,91,75.0000000000,,,
5.7011718750,91,45.0000000000,,,
5.7031250000,91,-22.0000000000,,,
5.7050781250,91,-46.0000000000,,,
5.7070312500,91,-24.0000000000,,,
5.7089843750,91,8.0000000000,,,
5.7109375000,91,26.0000000000,,,
5.7128906250,91,9.0000000000,,,
5.7148437500,91,1.0000000000,,,
5.7167968750,91,38.0000000000,,,
5.7187500000,91,81.0000000000,,,
5.7207031250,91,57.0000000000,,,
5.7226562500,91,35.0000000000,,,
5.7246093750,91,52.0000000000,,,
5.7265625000,91,60.0000000000,,,
5.7285156250,91,39.0000000000,,,
5.7304687500,91,18.0000000000,,,
5.7324218750,91,0.0000000000,,,
5.7343750000,91,-12.0000000000,,,
5.7363281250,91,-9.0000000000,,,
5.7382812500,91,38.0000000000,,,
5.7402343750,91,87.0000000000,,,
5.7421875000,91,68.0000000000,,,
5.7441406250,91,38.0000000000,,,
5.7460937500,91,74.0000000000,,,
5.7480468750,91,149.0000000000,,,
5.7500000000,92,170.0000000000,,,
5.7519531250,92,139.0000000000,,,
5.7539062500,92,121.0000000000,,,
5.7558593750,92,102.0000000000,,,
5.7578125000,92,86.0000000000,,,
5.7597656250,92,70.0000000000,,,
5.7617187500,92,69.0000000000,,,
5.7636718750,92,80.0000000000,,,
5.7656250000,92,76.0000000000,,,
5.7675781250,92,66.0000000000,,,
5.7695312500,92,66.0000000000,,,
5.7714843750,92,76.0000000000,,,
5.7734375000,92,89.0000000000,,,
5.7753906250,92,93.0000000000,,,
5.7773437500,92,116.0000000000,,,
5.7792968750,92,138.0000000000,,,
5.7812500000,92,145.0000000000,,,
5.7832031250,92,105.0000000000,,,
5.7851562500,92,64.0000000000,,,
5.7871093750,92,57.0000000000,,,
5.7890625000,92,87.0000000000,,,
5.7910156250,92,87.0000000000,,,
5.7929687500,92,58.0000000000,,,
5.7949218750,92,42.0000000000,,,
5.7968750000,92,16.0000000000,,,
5.7988281250,92,7.0000000000,,,
5.8007812500,92,8.0000000000,,,
5.8027343750,92,1.0000000000,,,
5.8046875000,92,-7.0000000000,,,
5.8066406250,92,-46.0000000000,,,
5.8085937500,92,-72.0000000000,,,
5.8105468750,92,4.0000000000,,,
5.8125000000,93,65.0000000000,,,
5.8144531250,93,-40.0000000000,,,
5.8164062500,93,-150.0000000000,,,
5.8183593750,93,-142.0000000000,,,
5.8203125000,93,-113.0000000000,,,
5.8222656250,93,-109.0000000000,,,
5.8242187500,93,-140.0000000000,,,
5.8261718750,93,-161.0000000000,,,
5.8281250000,93,-167.0000000000,,,
5.8300781250,93,-186.0000000000,,,
5.8320312500,93,-168.0000000000,,,
5.8339843750,93,-117.0000000000,,,
5.8359375000,93,-62.0000000000,,,
5.8378906250,93,-26.0000000000,,,
5.8398437500,93,-11.0000000000,,,
5.8417968750,93,-46.0000000000,,,
5.8437500000,93,-75.0000000000,,,
5.8457031250,93,-57.0000000000,,,
5.8476562500,93,-7.0000000000,,,
5.8496093750,93,42.0000000000,,,
5.8515625000,93,90.0000000000,,,
5.8535156250,93,99.0000000000,,,
5.8554687500,93,87.0000000000,,,
5.8574218750,93,115.0000000000,,,
5.8593750000,93,149.0000000000,,,
5.8613281250,93,194.0000000000,,,
5.8632812500,93,208.0000000000,,,
5.8652343750,93,135.0000000000,,,
5.8671875000,93,64.0000000000,,,
5.8691406250,93,36.0000000000,,,
5.8710937500,93,-21.0000000000,,,
5.8730468750,93,-81.0000000000,,,
5.8750000000,94,-66.0000000000,,,
5.8769531250,94,17.0000000000,,,
5.8789062500,94,86.0000000000,,,
5.8808593750,94,113.0000000000,,,
5.8828125000,94,124.0000000000,,,
5.8847656250,94,195.0000000000,,,
5.8867187500,94,312.0000000000,,,
5.8886718750,94,396.0000000000,,,
5.8906250000,94,457.0000000000,,,
5.8925781250,94,512.0000000000,,,
5.8945312500,94,438.0000000000,,,
5.8964843750,94,290.0000000000,,,
5.8984375000,94,269.0000000000,,,
5.9003906250,94,316.0000000000,,,
5.9023437500,94,324.0000000000,,,
5.9042968750,94,310.0000000000,,,
5.9062500000,94,280.0000000000,,,
5.9082031250,94,268.0000000000,,,
5.9101562500,94,371.0000000000,,,
5.9121093750,94,412.0000000000,,,
5.9140625000,94,298.0000000000,,,
5.9160156250,94,187.0000000000,,,
5.9179687500,94,140.0000000000,,,
5.9199218750,94,109.0000000000,,,
5.9218750000,94,104.0000000000,,,
5.9238281250,94,146.0000000000,,,
5.9257812500,94,140.0000000000,,,
5.9277343750,94,107.0000000000,,,
5.9296875000,94,102.0000000000,,,
5.9316406250,94,155.0000000000,,,
5.9335937500,94,169.0000000000,,,
5.9355468750,94,129.0000000000,,,
5.9375000000,95,42.0000000000,,,
5.9394531250,95,-8.0000000000,,,
5.9414062500,95,1.0000000000,,,
5.9433593750,95,-5.0000000000,,,
5.9453125000,95,-82.0000000000,,,
5.9472656250,95,-70.0000000000,,,
5.9492187500,95,83.0000000000,,,
5.9511718750,95,209.0000000000,,,
5.9531250000,95,230.0000000000,,,
5.9550781250,95,130.0000000000,,,
5.9570312500,95,1.0000000000,,,
5.9589843750,95,-34.0000000000,,,
5.9609375000,95,34.0000000000,,,
5.9628906250,95,37.0000000000,,,
5.9648437500,95,-38.0000000000,,,
5.9667968750,95,-71.0000000000,,,
5.9687500000,95,-74.0000000000,,,
5.9707031250,95,-121.0000000000,,,
5.9726562500,95,-50.0000000000,,,
5.9746093750,95,118.0000000000,,,
5.9765625000,95,194.0000000000,,,
5.9785156250,95,153.0000000000,,,
5.9804687500,95,236.0000000000,,,
5.9824218750,95,404.0000000000,,,
5.9843750000,95,340.0000000000,,,
5.9863281250,95,106.0000000000,,,
5.9882812500,95,52.0000000000,,,
5.9902343750,95,220.0000000000,,,
5.9921875000,95,221.0000000000,,,
5.9941406250,95,-121.0000000000,,,
5.9960937500,95,-377.0000000000,,,
5.9980468750,95,-322.0000000000,,,
6.0000000000,96,-261.0000000000,,,
6.0019531250,96,-203.0000000000,,,
6.0039062500,96,-98.0000000000,,,
6.0058593750,96,-178.0000000000,,,
6.0078125000,96,-222.0000000000,,,
6.0097656250,96,-1.0000000000,,,
6.0117187500,96,375.0000000000,,,
6.0136718750,96,569.0000000000,,,
6.0156250000,96,556.0000000000,,,
6.0175781250,96,537.0000000000,,,
6.0195312500,96,743.0000000000,,,
6.0214843750,96,598.0000000000,,,
6.0234375000,96,262.0000000000,,,
6.0253906250,96,212.0000000000,,,
6.0273437500,96,370.0000000000,,,
6.0292968750,96,442.0000000000,,,
6.0312500000,96,-27.0000000000,,,
6.0332031250,96,-503.0000000000,,,
6.0351562500,96,-453.0000000000,,,
6.0371093750,96,-104.0000000000,,,
6.0390625000,96,188.0000000000,,,
6.0410156250,96,352.0000000000,,,
6.0429687500,96,392.0000000000,,,
6.0449218750,96,300.0000000000,,,
6.0468750000,96,185.0000000000,,,
6.0488281250,96,128.0000000000,,,
6.0507812500,96,-51.0000000000,,,
6.0527343750,96,-233.0000000000,,,
6.0546875000,96,-13.0000000000,,,
6.0566406250,96,276.0000000000,,,
6.0585937500,96,7.0000000000,,,
6.0605468750,96,-529.0000000000,,,
6.0625000000,97,-716.0000000000,,,
6.0644531250,97,-452.0000000000,,,
6.0664062500,97,-50.0000000000,,,
6.0683593750,97,23.0000000000,,,
6.0703125000,97,118.0000000000,,,
6.0722656250,97,160.0000000000,,,
6.0742187500,97,-161.0000000000,,,
6.0761718750,97,-441.0000000000,,,
6.0781250000,97,-349.0000000000,,,
6.0800781250,97,-197.0000000000,,,
6.0820312500,97,-151.0000000000,,,
6.0839843750,97,-114.0000000000,,,
6.0859375000,97,9.0000000000,,,
6.0878906250,97,214.0000000000,,,
6.0898437500,97,170.0000000000,,,
6.0917968750,97,-117.0000000000,,,
6.0937500000,97,-346.0000000000,,,
6.0957031250,97,-354.0000000000,,,
6.0976562500,97,-258.0000000000,,,
6.0996093750,97,-225.0000000000,,,
6.1015625000,97,-182.0000000000,,,
6.1035156250,97,-118.0000000000,,,
6.1054687500,97,-318.0000000000,,,
6.1074218750,97,-629.0000000000,,,
6.1093750000,97,-555.0000000000,,,
6.1113281250,97,-265.0000000000,,,
6.1132812500,97,-77.0000000000,,,
6.1152343750,97,-17.0000000000,,,
6.1171875000,97,-109.0000000000,,,
6.1191406250,97,-219.0000000000,,,
6.1210937500,97,-321.0000000000,,,
6.1230468750,97,-324.0000000000,,,
6.1250000000,98,-169.0000000000,,,
6.1269531250,98,41.0000000000,,,
6.1289062500,98,150.0000000000,,,
6.1308593750,98,154.0000000000,,,
6.1328125000,98,41.0000000000,,,
6.1347656250,98,-179.0000000000,,,
6.1367187500,98,-298.0000000000,,,
6.1386718750,98,-231.0000000000,,,
6.1406250000,98,-34.0000000000,,,
6.1425781250,98,97.0000000000,,,
6.1445312500,98,116.0000000000,,,
6.1464843750,98,97.0000000000,,,
6.1484375000,98,96.0000000000,,,
6.1503906250,98,44.0000000000,,,
6.1523437500,98,-11.0000000000,,,
6.1542968750,98,28.0000000000,33552,6.1542968750,0.0000000000
6.1562500000,98,66.0000000000,,,
6.1582031250,98,77.0000000000,,,
6.1601562500,98,60.0000000000,,,
6.1621093750,98,43.0000000000,,,
6.1640625000,98,32.0000000000,,,
6.1660156250,98,34.0000000000,,,
6.1679687500,98,33.0000000000,,,
6.1699218750,98,18.0000000000,,,
6.1718750000,98,19.0000000000,,,
6.1738281250,98,61.0000000000,,,
6.1757812500,98,108.0000000000,,,
6.1777343750,98,96.0000000000,,,
6.1796875000,98,60.0000000000,,,
6.1816406250,98,65.0000000000,,,
6.1835937500,98,67.0000000000,,,
6.1855468750,98,72.0000000000,,,
6.1875000000,99,90.0000000000,,,
6.1894531250,99,88.0000000000,,,
6.1914062500,99,90.0000000000,,,
6.1933593750,99,84.0000000000,,,
6.1953125000,99,76.0000000000,,,
6.1972656250,99,70.0000000000,,,
6.1992187500,99,87.0000000000,,,
6.2011718750,99,145.0000000000,,,
6.2031250000,99,202.0000000000,,,
6.2050781250,99,211.0000000000,,,
6.2070312500,99,182.0000000000,,,
6.2089843750,99,154.0000000000,,,
6.2109375000,99,152.0000000000,,,
6.2128906250,99,203.0000000000,,,
6.2148437500,99,256.0000000000,,,
6.2167968750,99,251.0000000000,,,
6.2187500000,99,226.0000000000,,,
6.2207031250,99,211.0000000000,,,
6.2226562500,99,196.0000000000,,,
6.2246093750,99,172.0000000000,,,
6.2265625000,99,152.0000000000,,,
6.2285156250,99,150.0000000000,,,
6.2304687500,99,171.0000000000,,,
6.2324218750,99,178.0000000000,,,
6.2343750000,99,131.0000000000,,,
6.2363281250,99,84.0000000000,,,
6.2382812500,99,80.0000000000,,,
6.2402343750,99,104.0000000000,,,
6.2421875000,99,144.0000000000,,,
6.2441406250,99,155.0000000000,,,
6.2460937500,99,141.0000000000,,,
6.2480468750,99,147.0000000000,,,
6.2500000000,100,146.0000000000,,,
6.2519531250,100,121.0000000000,,,
6.2539062500,100,116.0000000000,,,
6.2558593750,100,112.0000000000,,,
6.2578125000,100,58.0000000000,,,
6.2597656250,100,22.0000000000,,,
6.2617187500,100,57.0000000000,,,
6.2636718750,100,107.0000000000,,,
6.2656250000,100,115.0000000000,,,
6.2675781250,100,109.0000000000,,,
6.2695312500,100,109.0000000000,,,
6.2714843750,100,108.0000000000,,,
6.2734375000,100,96.0000000000,,,
6.2753906250,100,92.0000000000,,,
6.2773437500,100,98.0000000000,,,
6.2792968750,100,105.0000000000,,,
6.2812500000,100,106.0000000000,,,
6.2832031250,100,101.0000000000,,,
6.2851562500,100,92.0000000000,,,
6.2871093750,100,100.0000000000,,,
6.2890625000,100,124.0000000000,,,
6.2910156250,100,118.0000000000,,,
6.2929687500,100,65.0000000000,,,
6.2949218750,100,17.0000000000,,,
6.2968750000,100,9.0000000000,,,
6.2988281250,100,35.0000000000,,,
6.3007812500,100,44.0000000000,,,
6.3027343750,100,32.0000000000,,,
6.3046875000,100,36.0000000000,,,
6.3066406250,100,91.0000000000,,,
6.3085937500,100,120.0000000000,,,
6.3105468750,100,96.0000000000,,,
6.3125000000,101,81.0000000000,,,
6.3144531250,101,107.0000000000,,,
6.3164062500,101,116.0000000000,,,
6.3183593750,101,96.0000000000,,,
6.3203125000,101,74.0000000000,,,
6.3222656250,101,60.0000000000,,,
6.3242187500,101,75.0000000000,,,
6.3261718750,101,103.0000000000,,,
6.3281250000,101,104.0000000000,,,
6.3300781250,101,87.0000000000,,,
6.3320312500,101,60.0000000000,,,
6.3339843750,101,60.0000000000,,,
6.3359375000,101,91.0000000000,,,
6.3378906250,101,105.0000000000,,,
6.3398437500,101,93.0000000000,,,
6.3417968750,101,99.0000000000,,,
6.3437500000,101,106.0000000000,,,
6.3457031250,101,75.0000000000,,,
6.3476562500,101,52.0000000000,,,
6.3496093750,101,80.0000000000,,,
6.3515625000,101,119.0000000000,,,
6.3535156250,101,172.0000000000,,,
6.3554687500,101,201.0000000000,,,
6.3574218750,101,198.0000000000,,,
6.3593750000,101,220.0000000000,,,
6.3613281250,101,249.0000000000,,,
6.3632812500,101,205.0000000000,,,
6.3652343750,101,131.0000000000,,,
6.3671875000,101,118.0000000000,,,
6.3691406250,101,140.0000000000,,,
6.3710937500,101,151.0000000000,,,
6.3730468750,101,171.0000000000,,,
6.3750000000,102,217.0000000000,,,
6.3769531250,102,224.0000000000,,,
6.3789062500,102,180.0000000000,,,
6.3808593750,102,149.0000000000,,,
6.3828125000,102,136.0000000000,,,
6.3847656250,102,134.0000000000,,,
6.3867187500,102,105.0000000000,,,
6.3886718750,102,38.0000000000,,,
6.3906250000,102,-18.0000000000,,,
6.3925781250,102,-29.0000000000,,,
6.3945312500,102,0.0000000000,,,
6.3964843750,102,41.0000000000,,,
6.3984375000,102,56.0000000000,,,
6.4003906250,102,37.0000000000,,,
6.4023437500,102,10.0000000000,,,
6.4042968750,102,6.0000000000,,,
6.4062500000,102,20.0000000000,,,
6.4082031250,102,43.0000000000,,,
6.4101562500,102,55.0000000000,,,
6.4121093750,102,68.0000000000,,,
6.4140625000,102,112.0000000000,,,
6.4160156250,102,112.0000000000,,,
6.4179687500,102,56.0000000000,,,
6.4199218750,102,49.0000000000,,,
6.4218750000,102,57.0000000000,,,
6.4238281250,102,38.0000000000,,,
6.4257812500,102,34.0000000000,,,
6.4277343750,102,58.0000000000,,,
6.4296875000,102,59.0000000000,,,
6.4316406250,102,24.0000000000,,,
6.4335937500,102,17.0000000000,,,
6.4355468750,102,22.0000000000,,,
6.4375000000,103,19.0000000000,,,
6.4394531250,103,19.0000000000,,,
6.4414062500,103,20.0000000000,,,
6.4433593750,103,10.0000000000,,,
6.4453125000,103,16.0000000000,,,
6.4472656250,103,-5.0000000000,,,
6.4492187500,103,-40.0000000000,,,
6.4511718750,103,-35.0000000000,,,
6.4531250000,103,18.0000000000,,,
6.4550781250,103,19.0000000000,,,
6.4570312500,103,-37.0000000000,,,
6.4589843750,103,-78.0000000000,,,
6.4609375000,103,-68.0000000000,,,
6.4628906250,103,-38.0000000000,,,
6.4648437500,103,-37.0000000000,,,
6.4667968750,103,-70.0000000000,,,
6.4687500000,103,-110.0000000000,,,
6.4707031250,103,-116.0000000000,,,
6.4726562500,103,-82.0000000000,,,
6.4746093750,103,-61.0000000000,,,
6.4765625000,103,-65.0000000000,,,
6.4785156250,103,-66.0000000000,,,
6.4804687500,103,-57.0000000000,,,
6.4824218750,103,-17.0000000000,,,
6.4843750000,103,52.0000000000,,,
6.4863281250,103,106.0000000000,,,
6.4882812500,103,115.0000000000,,,
6.4902343750,103,87.0000000000,,,
6.4921875000,103,69.0000000000,,,
6.4941406250,103,64.0000000000,,,
6.4960937500,103,65.0000000000,,,
6.4980468750,103,39.0000000000,,,
6.5000000000,104,11.0000000000,,,
6.5019531250,104,1.0000000000,,,
6.5039062500,104,-13.0000000000,,,
6.5058593750,104,-40.0000000000,,,
6.5078125000,104,-46.0000000000,,,
6.5097656250,104,-39.0000000000,,,
6.5117187500,104,-22.0000000000,,,
6.5136718750,104,-1.0000000000,,,
6.5156250000,104,3.0000000000,,,
6.5175781250,104,-1.0000000000,,,
6.5195312500,104,20.0000000000,,,
6.5214843750,104,21.0000000000,,,
6.5234375000,104,-19.0000000000,,,
6.5253906250,104,-50.0000000000,,,
6.5273437500,104,-43.0000000000,,,
6.5292968750,104,-22.0000000000,,,
6.5312500000,104,-20.0000000000,,,
6.5332031250,104,-51.0000000000,,,
6.5351562500,104,-85.0000000000,,,
6.5371093750,104,-86.0000000000,,,
6.5390625000,104,-37.0000000000,,,
6.5410156250,104,32.0000000000,,,
6.5429687500,104,50.0000000000,,,
6.5449218750,104,16.0000000000,,,
6.5468750000,104,0.0000000000,,,
6.5488281250,104,22.0000000000,,,
6.5507812500,104,59.0000000000,,,
6.5527343750,104,76.0000000000,,,
6.5546875000,104,57.0000000000,,,
6.5566406250,104,28.0000000000,,,
6.5585937500,104,28.0000000000,,,
6.5605468750,104,61.0000000000,,,
6.5625000000,105,69.0000000000,,,
6.5644531250,105,51.0000000000,,,
6.5664062500,105,50.0000000000,,,
6.5683593750,105,71.0000000000,,,
6.5703125000,105,74.0000000000,,,
6.5722656250,105,84.0000000000,,,
6.5742187500,105,87.0000000000,,,
6.5761718750,105,68.0000000000,,,
6.5781250000,105,50.0000000000,,,
6.5800781250,105,50.0000000000,,,
6.5820312500,105,60.0000000000,,,
6.5839843750,105,82.0000000000,,,
6.5859375000,105,115.0000000000,,,
6.5878906250,105,133.0000000000,,,
6.5898437500,105,112.0000000000,,,
6.5917968750,105,91.0000000000,,,
6.5937500000,105,88.0000000000,,,
6.5957031250,105,89.0000000000,,,
6.5976562500,105,71.0000000000,,,
6.5996093750,105,50.0000000000,,,
6.6015625000,105,44.0000000000,,,
6.6035156250,105,54.0000000000,,,
6.6054687500,105,68.0000000000,,,
6.6074218750,105,77.0000000000,,,
6.6093750000,105,74.0000000000,,,
6.6113281250,105,74.0000000000,,,
6.6132812500,105,73.0000000000,,,
6.6152343750,105,58.0000000000,,,
6.6171875000,105,65.0000000000,,,
6.6191406250,105,92.0000000000,,,
6.6210937500,105,115.0000000000,,,
6.6230468750,105,98.0000000000,,,
6.6250000000,106,53.0000000000,,,
6.6269531250,106,37.0000000000,,,
6.6289062500,106,77.0000000000,,,
6.6308593750,106,134.0000000000,,,
6.6328125000,106,162.0000000000,,,
6.6347656250,106,145.0000000000,,,
6.6367187500,106,120.0000000000,,,
6.6386718750,106,113.0000000000,,,
6.6406250000,106,117.0000000000,,,
6.6425781250,106,122.0000000000,,,
6.6445312500,106,109.0000000000,,,
6.6464843750,106,80.0000000000,,,
6.6484375000,106,51.0000000000,,,
6.6503906250,106,11.0000000000,,,
6.6523437500,106,-6.0000000000,,,
6.6542968750,106,18.0000000000,,,
6.6562500000,106,67.0000000000,,,
6.6582031250,106,76.0000000000,,,
6.6601562500,106,52.0000000000,,,
6.6621093750,106,21.0000000000,,,
6.6640625000,106,4.0000000000,,,
6.6660156250,106,-25.0000000000,,,
6.6679687500,106,-83.0000000000,,,
6.6699218750,106,-124.0000000000,,,
6.6718750000,106,-116.0000000000,,,
6.6738281250,106,-75.0000000000,,,
6.6757812500,106,-26.0000000000,,,
6.6777343750,106,41.0000000000,,,
6.6796875000,106,96.0000000000,,,
6.6816406250,106,83.0000000000,,,
6.6835937500,106,39.0000000000,,,
6.6855468750,106,33.0000000000,,,
6.6875000000,107,59.0000000000,,,
6.6894531250,107,70.0000000000,,,
6.6914062500,107,43.0000000000,,,
6.6933593750,107,6.0000000000,,,
6.6953125000,107,-1.0000000000,,,
6.6972656250,107,19.0000000000,,,
6.6992187500,107,45.0000000000,,,
6.7011718750,107,50.0000000000,,,
6.7031250000,107,19.0000000000,,,
6.7050781250,107,-9.0000000000,,,
6.7070312500,107,-27.0000000000,,,
6.7089843750,107,-18.0000000000,,,
6.7109375000,107,19.0000000000,,,
6.7128906250,107,58.0000000000,,,
6.7148437500,107,71.0000000000,,,
6.7167968750,107,83.0000000000,,,
6.7187500000,107,88.0000000000,,,
6.7207031250,107,83.0000000000,,,
6.7226562500,107,92.0000000000,,,
6.7246093750,107,101.0000000000,,,
6.7265625000,107,70.0000000000,,,
6.7285156250,107,39.0000000000,,,
6.7304687500,107,18.0000000000,,,
6.7324218750,107,10.0000000000,,,
6.7343750000,107,0.0000000000,,,
6.7363281250,107,-17.0000000000,,,
6.7382812500,107,-10.0000000000,,,
6.7402343750,107,-1.0000000000,,,
6.7421875000,107,-23.0000000000,,,
6.7441406250,107,-43.0000000000,,,
6.7460937500,107,-28.0000000000,,,
6.7480468750,107,-7.0000000000,,,
6.7500000000,108,12.0000000000,,,
6.7519531250,108,17.0000000000,,,
6.7539062500,108,11.0000000000,,,
6.7558593750,108,28.0000000000,,,
6.7578125000,108,42.0000000000,,,
6.7597656250,108,18.0000000000,,,
6.7617187500,108,-19.0000000000,,,
6.7636718750,108,-30.0000000000,,,
6.7656250000,108,-23.0000000000,,,
6.7675781250,108,-3.0000000000,,,
6.7695312500,108,11.0000000000,,,
6.7714843750,108,12.0000000000,,,
6.7734375000,108,10.0000000000,,,
6.7753906250,108,21.0000000000,,,
6.7773437500,108,20.0000000000,,,
6.7792968750,108,20.0000000000,,,
6.7812500000,108,33.0000000000,,,
6.7832031250,108,40.0000000000,,,
6.7851562500,108,42.0000000000,,,
6.7871093750,108,54.0000000000,,,
6.7890625000,108,72.0000000000,,,
6.7910156250,108,64.0000000000,,,
6.7929687500,108,37.0000000000,,,
6.7949218750,108,23.0000000000,,,
6.7968750000,108,44.0000000000,,,
6.7988281250,108,65.0000000000,,,
6.8007812500,108,76.0000000000,,,
6.8027343750,108,80.0000000000,,,
6.8046875000,108,33.0000000000,,,
6.8066406250,108,-27.0000000000,,,
6.8085937500,108,-49.0000000000,,,
6.8105468750,108,-36.0000000000,,,
6.8125000000,109,-35.0000000000,,,
6.8144531250,109,-34.0000000000,,,
6.8164062500,109,-25.0000000000,,,
6.8183593750,109,-7.0000000000,,,
6.8203125000,109,4.0000000000,,,
6.8222656250,109,1.0000000000,,,
6.8242187500,109,-8.0000000000,,,
6.8261718750,109,-3.0000000000,,,
6.8281250000,109,16.0000000000,,,
6.8300781250,109,36.0000000000,,,
6.8320312500,109,53.0000000000,,,
6.8339843750,109,70.0000000000,,,
6.8359375000,109,58.0000000000,,,
6.8378906250,109,33.0000000000,,,
6.8398437500,109,18.0000000000,,,
6.8417968750,109,34.0000000000,,,
6.8437500000,109,72.0000000000,,,
6.8457031250,109,125.0000000000,,,
6.8476562500,109,147.0000000000,,,
6.8496093750,109,123.0000000000,,,
6.8515625000,109,89.0000000000,,,
6.8535156250,109,67.0000000000,,,
6.8554687500,109,82.0000000000,,,
6.8574218750,109,108.0000000000,,,
6.8593750000,109,118.0000000000,,,
6.8613281250,109,135.0000000000,,,
6.8632812500,109,146.0000000000,,,
6.8652343750,109,109.0000000000,,,
6.8671875000,109,85.0000000000,,,
6.8691406250,109,74.0000000000,,,
6.8710937500,109,81.0000000000,,,
6.8730468750,109,112.0000000000,,,
6.8750000000,110,124.0000000000,,,
6.8769531250,110,106.0000000000,,,
6.8789062500,110,75.0000000000,,,
6.8808593750,110,82.0000000000,,,
6.8828125000,110,113.0000000000,,,
6.8847656250,110,116.0000000000,,,
6.8867187500,110,101.0000000000,,,
6.8886718750,110,91.0000000000,,,
6.8906250000,110,71.0000000000,,,
6.8925781250,110,34.0000000000,,,
6.8945312500,110,21.0000000000,,,
6.8964843750,110,35.0000000000,,,
6.8984375000,110,13.0000000000,,,
6.9003906250,110,-26.0000000000,,,
6.9023437500,110,-19.0000000000,,,
6.9042968750,110,44.0000000000,,,
6.9062500000,110,85.0000000000,,,
6.9082031250,110,64.0000000000,,,
6.9101562500,110,49.0000000000,,,
6.9121093750,110,66.0000000000,,,
6.9140625000,110,81.0000000000,,,
6.9160156250,110,99.0000000000,,,
6.9179687500,110,118.0000000000,,,
6.9199218750,110,113.0000000000,,,
6.9218750000,110,88.0000000000,,,
6.9238281250,110,96.0000000000,,,
6.9257812500,110,151.0000000000,,,
6.9277343750,110,218.0000000000,,,
6.9296875000,110,240.0000000000,,,
6.9316406250,110,229.0000000000,,,
6.9335937500,110,224.0000000000,,,
6.9355468750,110,228.0000000000,,,
6.9375000000,111,233.0000000000,,,
6.9394531250,111,221.0000000000,,,
6.9414062500,111,201.0000000000,,,
6.9433593750,111,187.0000000000,,,
6.9453125000,111,171.0000000000,,,
6.9472656250,111,150.0000000000,,,
6.9492187500,111,128.0000000000,,,
