Time:512Hz,Epoch,Electrode,Event Id,Event Date,Event Duration
0.0000000000,0,-198.0000000000,,,
0.0019531250,0,-250.0000000000,,,
0.0039062500,0,-253.0000000000,,,
0.0058593750,0,-233.0000000000,,,
0.0078125000,0,-219.0000000000,,,
0.0097656250,0,-153.0000000000,,,
0.0117187500,0,-25.0000000000,,,
0.0136718750,0,55.0000000000,,,
0.0156250000,0,57.0000000000,,,
0.0175781250,0,18.0000000000,,,
0.0195312500,0,-23.0000000000,,,
0.0214843750,0,-20.0000000000,,,
0.0234375000,0,5.0000000000,,,
0.0253906250,0,-40.0000000000,,,
0.0273437500,0,-110.0000000000,,,
0.0292968750,0,-105.0000000000,,,
0.0312500000,0,-50.0000000000,,,
0.0332031250,0,6.0000000000,,,
0.0351562500,0,38.0000000000,,,
0.0371093750,0,36.0000000000,,,
0.0390625000,0,7.0000000000,,,
0.0410156250,0,-10.0000000000,,,
0.0429687500,0,11.0000000000,,,
0.0449218750,0,25.0000000000,,,
0.0468750000,0,-8.0000000000,,,
0.0488281250,0,-24.0000000000,,,
0.0507812500,0,-21.0000000000,,,
0.0527343750,0,-6.0000000000,,,
0.0546875000,0,25.0000000000,,,
0.0566406250,0,80.0000000000,,,
0.0585937500,0,107.0000000000,,,
0.0605468750,0,40.0000000000,,,
0.0625000000,1,-20.0000000000,,,
0.0644531250,1,11.0000000000,,,
0.0664062500,1,2.0000000000,,,
0.0683593750,1,-98.0000000000,,,
0.0703125000,1,-195.0000000000,,,
0.0722656250,1,-194.0000000000,,,
0.0742187500,1,-90.0000000000,,,
0.0761718750,1,-28.0000000000,,,
0.0781250000,1,-90.0000000000,,,
0.0800781250,1,-151.0000000000,,,
0.0820312500,1,-133.0000000000,,,
0.0839843750,1,-88.0000000000,,,
0.0859375000,1,-100.0000000000,,,
0.0878906250,1,-154.0000000000,,,
0.0898437500,1,-118.0000000000,,,
0.0917968750,1,-70.0000000000,,,
0.0937500000,1,-33.0000000000,,,
0.0957031250,1,-3.0000000000,,,
0.0976562500,1,35.0000000000,,,
0.0996093750,1,67.0000000000,,,
0.1015625000,1,51.0000000000,,,
0.1035156250,1,55.0000000000,,,
0.1054687500,1,67.0000000000,,,
0.1074218750,1,44.0000000000,,,
0.1093750000,1,2.0000000000,,,
0.1113281250,1,-82.0000000000,,,
0.1132812500,1,-166.0000000000,,,
0.1152343750,1,-179.0000000000,,,
0.1171875000,1,-130.0000000000,,,
0.1191406250,1,-60.0000000000,,,
0.1210937500,1,-41.0000000000,,,
0.1230468750,1,-117.0000000000,,,
0.1250000000,2,-173.0000000000,,,
0.1269531250,2,-184.0000000000,,,
0.1289062500,2,-131.0000000000,,,
0.1308593750,2,-30.0000000000,,,
0.1328125000,2,-1.0000000000,,,
0.1347656250,2,-33.0000000000,,,
0.1367187500,2,-11.0000000000,,,
0.1386718750,2,73.0000000000,,,
0.1406250000,2,89.0000000000,,,
0.1425781250,2,80.0000000000,,,
0.1445312500,2,99.0000000000,,,
0.1464843750,2,121.0000000000,,,
0.1484375000,2,118.0000000000,,,
0.1503906250,2,96.0000000000,,,
0.1523437500,2,93.0000000000,,,
0.1542968750,2,44.0000000000,,,
0.1562500000,2,-25.0000000000,,,
0.1582031250,2,-18.0000000000,,,
0.1601562500,2,114.0000000000,,,
0.1621093750,2,210.0000000000,,,
0.1640625000,2,203.0000000000,,,
0.1660156250,2,104.0000000000,,,
0.1679687500,2,17.0000000000,,,
0.1699218750,2,23.0000000000,,,
0.1718750000,2,82.0000000000,,,
0.1738281250,2,150.0000000000,,,
0.1757812500,2,136.0000000000,,,
0.1777343750,2,100.0000000000,,,
0.1796875000,2,91.0000000000,,,
0.1816406250,2,51.0000000000,,,
0.1835937500,2,38.0000000000,,,
0.1855468750,2,40.0000000000,,,
0.1875000000,3,76.0000000000,,,
0.1894531250,3,140.0000000000,,,
0.1914062500,3,179.0000000000,,,
0.1933593750,3,177.0000000000,,,
0.1953125000,3,169.0000000000,,,
0.1972656250,3,188.0000000000,,,
0.1992187500,3,256.0000000000,,,
0.2011718750,3,295.0000000000,,,
0.2031250000,3,292.0000000000,,,
0.2050781250,3,228.0000000000,,,
0.2070312500,3,148.0000000000,,,
0.2089843750,3,132.0000000000,,,
0.2109375000,3,280.0000000000,,,
0.2128906250,3,406.0000000000,,,
0.2148437500,3,328.0000000000,,,
0.2167968750,3,225.0000000000,,,
0.2187500000,3,232.0000000000,,,
0.2207031250,3,330.0000000000,,,
0.2226562500,3,370.0000000000,,,
0.2246093750,3,290.0000000000,,,
0.2265625000,3,164.0000000000,,,
0.2285156250,3,104.0000000000,,,
0.2304687500,3,150.0000000000,,,
0.2324218750,3,212.0000000000,,,
0.2343750000,3,232.0000000000,,,
0.2363281250,3,210.0000000000,,,
0.2382812500,3,172.0000000000,,,
0.2402343750,3,124.0000000000,,,
0.2421875000,3,146.0000000000,,,
0.2441406250,3,88.0000000000,,,
0.2460937500,3,-100.0000000000,,,
0.2480468750,3,-195.0000000000,,,
0.2500000000,4,-188.0000000000,,,
0.2519531250,4,-141.0000000000,,,
0.2539062500,4,-66.0000000000,,,
0.2558593750,4,-55.0000000000,,,
0.2578125000,4,-78.0000000000,,,
0.2597656250,4,-68.0000000000,,,
0.2617187500,4,-21.0000000000,,,
0.2636718750,4,-46.0000000000,,,
0.2656250000,4,-85.0000000000,,,
0.2675781250,4,-12.0000000000,,,
0.2695312500,4,22.0000000000,,,
0.2714843750,4,-45.0000000000,,,
0.2734375000,4,-107.0000000000,,,
0.2753906250,4,-106.0000000000,,,
0.2773437500,4,-62.0000000000,,,
0.2792968750,4,-11.0000000000,,,
0.2812500000,4,27.0000000000,,,
0.2832031250,4,4.0000000000,,,
0.2851562500,4,-42.0000000000,,,
0.2871093750,4,-104.0000000000,,,
0.2890625000,4,-135.0000000000,,,
0.2910156250,4,-124.0000000000,,,
0.2929687500,4,-72.0000000000,,,
0.2949218750,4,29.0000000000,,,
0.2968750000,4,90.0000000000,,,
0.2988281250,4,108.0000000000,,,
0.3007812500,4,109.0000000000,,,
0.3027343750,4,128.0000000000,,,
0.3046875000,4,128.0000000000,,,
0.3066406250,4,96.0000000000,,,
0.3085937500,4,91.0000000000,,,
0.3105468750,4,92.0000000000,,,
0.3125000000,5,65.0000000000,,,
0.3144531250,5,104.0000000000,,,
0.3164062500,5,177.0000000000,,,
0.3183593750,5,108.0000000000,,,
0.3203125000,5,24.0000000000,,,
0.3222656250,5,22.0000000000,,,
0.3242187500,5,50.0000000000,,,
0.3261718750,5,53.0000000000,,,
0.3281250000,5,6.0000000000,,,
0.3300781250,5,-14.0000000000,,,
0.3320312500,5,-25.0000000000,,,
0.3339843750,5,-76.0000000000,,,
0.3359375000,5,-113.0000000000,,,
0.3378906250,5,-122.0000000000,,,
0.3398437500,5,-123.0000000000,,,
0.3417968750,5,-57.0000000000,,,
0.3437500000,5,18.0000000000,,,
0.3457031250,5,19.0000000000,,,
0.3476562500,5,-3.0000000000,,,
0.3496093750,5,-10.0000000000,,,
0.3515625000,5,-5.0000000000,,,
0.3535156250,5,-33.0000000000,,,
0.3554687500,5,-78.0000000000,,,
0.3574218750,5,-81.0000000000,,,
0.3593750000,5,-23.0000000000,,,
0.3613281250,5,29.0000000000,,,
0.3632812500,5,-3.0000000000,,,
0.3652343750,5,-57.0000000000,,,
0.3671875000,5,-24.0000000000,,,
0.3691406250,5,-14.0000000000,,,
0.3710937500,5,-56.0000000000,,,
0.3730468750,5,-98.0000000000,,,
0.3750000000,6,-56.0000000000,,,
0.3769531250,6,13.0000000000,,,
0.3789062500,6,37.0000000000,,,
0.3808593750,6,8.0000000000,,,
0.3828125000,6,-38.0000000000,,,
0.3847656250,6,-13.0000000000,,,
0.3867187500,6,34.0000000000,,,
0.3886718750,6,28.0000000000,,,
0.3906250000,6,-6.0000000000,,,
0.3925781250,6,-81.0000000000,,,
0.3945312500,6,-169.0000000000,,,
0.3964843750,6,-209.0000000000,,,
0.3984375000,6,-168.0000000000,,,
0.4003906250,6,-140.0000000000,,,
0.4023437500,6,-146.0000000000,,,
0.4042968750,6,-107.0000000000,,,
0.4062500000,6,-8.0000000000,,,
0.4082031250,6,51.0000000000,,,
0.4101562500,6,-4.0000000000,,,
0.4121093750,6,-110.0000000000,,,
0.4140625000,6,-165.0000000000,,,
0.4160156250,6,-156.0000000000,,,
0.4179687500,6,-86.0000000000,,,
0.4199218750,6,-1.0000000000,,,
0.4218750000,6,32.0000000000,,,
0.4238281250,6,34.0000000000,,,
0.4257812500,6,13.0000000000,,,
0.4277343750,6,9.0000000000,,,
0.4296875000,6,-50.0000000000,,,
0.4316406250,6,-120.0000000000,,,
0.4335937500,6,-55.0000000000,,,
0.4355468750,6,53.0000000000,,,
0.4375000000,7,41.0000000000,,,
0.4394531250,7,19.0000000000,,,
0.4414062500,7,-3.0000000000,,,
0.4433593750,7,4.0000000000,,,
0.4453125000,7,71.0000000000,,,
0.4472656250,7,61.0000000000,,,
0.4492187500,7,-25.0000000000,,,
0.4511718750,7,-75.0000000000,,,
0.4531250000,7,-53.0000000000,,,
0.4550781250,7,8.0000000000,,,
0.4570312500,7,16.0000000000,,,
0.4589843750,7,-13.0000000000,,,
0.4609375000,7,5.0000000000,,,
0.4628906250,7,38.0000000000,,,
0.4648437500,7,35.0000000000,,,
0.4667968750,7,27.0000000000,,,
0.4687500000,7,36.0000000000,,,
0.4707031250,7,-24.0000000000,,,
0.4726562500,7,-81.0000000000,,,
0.4746093750,7,-61.0000000000,,,
0.4765625000,7,-18.0000000000,,,
0.4785156250,7,23.0000000000,,,
0.4804687500,7,69.0000000000,,,
0.4824218750,7,70.0000000000,,,
0.4843750000,7,45.0000000000,,,
0.4863281250,7,32.0000000000,,,
0.4882812500,7,64.0000000000,,,
0.4902343750,7,130.0000000000,,,
0.4921875000,7,129.0000000000,,,
0.4941406250,7,80.0000000000,,,
0.4960937500,7,43.0000000000,,,
0.4980468750,7,55.0000000000,,,
0.5000000000,8,107.0000000000,,,
0.5019531250,8,104.0000000000,,,
0.5039062500,8,121.0000000000,,,
0.5058593750,8,192.0000000000,,,
0.5078125000,8,177.0000000000,,,
0.5097656250,8,73.0000000000,,,
0.5117187500,8,55.0000000000,,,
0.5136718750,8,132.0000000000,,,
0.5156250000,8,231.0000000000,,,
0.5175781250,8,243.0000000000,,,
0.5195312500,8,183.0000000000,,,
0.5214843750,8,150.0000000000,,,
0.5234375000,8,179.0000000000,,,
0.5253906250,8,164.0000000000,,,
0.5273437500,8,137.0000000000,,,
0.5292968750,8,137.0000000000,,,
0.5312500000,8,132.0000000000,,,
0.5332031250,8,84.0000000000,,,
0.5351562500,8,21.0000000000,,,
0.5371093750,8,-1.0000000000,,,
0.5390625000,8,22.0000000000,,,
0.5410156250,8,26.0000000000,,,
0.5429687500,8,-23.0000000000,,,
0.5449218750,8,-27.0000000000,,,
0.5468750000,8,40.0000000000,,,
0.5488281250,8,155.0000000000,,,
0.5507812500,8,161.0000000000,,,
0.5527343750,8,36.0000000000,,,
0.5546875000,8,-20.0000000000,,,
0.5566406250,8,40.0000000000,,,
0.5585937500,8,100.0000000000,,,
0.5605468750,8,117.0000000000,,,
0.5625000000,9,89.0000000000,,,
0.5644531250,9,49.0000000000,,,
0.5664062500,9,8.0000000000,,,
0.5683593750,9,-11.0000000000,,,
0.5703125000,9,26.0000000000,,,
0.5722656250,9,64.0000000000,,,
0.5742187500,9,83.0000000000,,,
0.5761718750,9,146.0000000000,,,
0.5781250000,9,161.0000000000,,,
0.5800781250,9,105.0000000000,,,
0.5820312500,9,68.0000000000,,,
0.5839843750,9,108.0000000000,,,
0.5859375000,9,152.0000000000,,,
0.5878906250,9,161.0000000000,,,
0.5898437500,9,173.0000000000,,,
0.5917968750,9,200.0000000000,,,
0.5937500000,9,195.0000000000,,,
0.5957031250,9,152.0000000000,,,
0.5976562500,9,145.0000000000,,,
0.5996093750,9,164.0000000000,,,
0.6015625000,9,136.0000000000,,,
0.6035156250,9,81.0000000000,,,
0.6054687500,9,82.0000000000,,,
0.6074218750,9,122.0000000000,,,
0.6093750000,9,123.0000000000,,,
0.6113281250,9,76.0000000000,,,
0.6132812500,9,11.0000000000,,,
0.6152343750,9,9.0000000000,,,
0.6171875000,9,68.0000000000,,,
0.6191406250,9,138.0000000000,,,
0.6210937500,9,131.0000000000,,,
0.6230468750,9,75.0000000000,,,
0.6250000000,10,86.0000000000,,,
0.6269531250,10,106.0000000000,,,
0.6289062500,10,81.0000000000,,,
0.6308593750,10,64.0000000000,,,
0.6328125000,10,68.0000000000,,,
0.6347656250,10,88.0000000000,,,
0.6367187500,10,105.0000000000,,,
0.6386718750,10,96.0000000000,,,
0.6406250000,10,73.0000000000,,,
0.6425781250,10,50.0000000000,,,
0.6445312500,10,72.0000000000,,,
0.6464843750,10,97.0000000000,,,
0.6484375000,10,32.0000000000,,,
0.6503906250,10,-27.0000000000,,,
0.6523437500,10,-9.0000000000,,,
0.6542968750,10,35.0000000000,,,
0.6562500000,10,35.0000000000,,,
0.6582031250,10,-30.0000000000,,,
0.6601562500,10,-77.0000000000,,,
0.6621093750,10,-17.0000000000,,,
0.6640625000,10,98.0000000000,,,
0.6660156250,10,138.0000000000,,,
0.6679687500,10,96.0000000000,,,
0.6699218750,10,50.0000000000,,,
0.6718750000,10,49.0000000000,,,
0.6738281250,10,74.0000000000,,,
0.6757812500,10,75.0000000000,,,
0.6777343750,10,59.0000000000,,,
0.6796875000,10,50.0000000000,,,
0.6816406250,10,32.0000000000,,,
0.6835937500,10,56.0000000000,,,
0.6855468750,10,58.0000000000,,,
0.6875000000,11,69.0000000000,,,
0.6894531250,11,72.0000000000,,,
0.6914062500,11,50.0000000000,,,
0.6933593750,11,24.0000000000,,,
0.6953125000,11,21.0000000000,,,
0.6972656250,11,44.0000000000,,,
0.6992187500,11,42.0000000000,,,
0.7011718750,11,3.0000000000,,,
0.7031250000,11,12.0000000000,,,
0.7050781250,11,68.0000000000,,,
0.7070312500,11,101.0000000000,,,
0.7089843750,11,101.0000000000,,,
0.7109375000,11,108.0000000000,,,
0.7128906250,11,105.0000000000,,,
0.7148437500,11,82.0000000000,,,
0.7167968750,11,54.0000000000,,,
0.7187500000,11,50.0000000000,,,
0.7207031250,11,-11.0000000000,,,
0.7226562500,11,-65.0000000000,,,
0.7246093750,11,-39.0000000000,,,
0.7265625000,11,0.0000000000,,,
0.7285156250,11,10.0000000000,,,
0.7304687500,11,11.0000000000,,,
0.7324218750,11,8.0000000000,,,
0.7343750000,11,-28.0000000000,,,
0.7363281250,11,-42.0000000000,,,
0.7382812500,11,27.0000000000,,,
0.7402343750,11,134.0000000000,,,
0.7421875000,11,182.0000000000,,,
0.7441406250,11,155.0000000000,,,
0.7460937500,11,112.0000000000,,,
0.7480468750,11,80.0000000000,,,
0.7500000000,12,60.0000000000,,,
0.7519531250,12,55.0000000000,,,
0.7539062500,12,32.0000000000,,,
0.7558593750,12,2.0000000000,,,
0.7578125000,12,-10.0000000000,,,
0.7597656250,12,-2.0000000000,,,
0.7617187500,12,22.0000000000,,,
0.7636718750,12,39.0000000000,,,
0.7656250000,12,19.0000000000,,,
0.7675781250,12,12.0000000000,,,
0.7695312500,12,49.0000000000,,,
0.7714843750,12,101.0000000000,,,
0.7734375000,12,146.0000000000,,,
0.7753906250,12,88.0000000000,,,
0.7773437500,12,-35.0000000000,,,
0.7792968750,12,-76.0000000000,,,
0.7812500000,12,-5.0000000000,,,
0.7832031250,12,69.0000000000,,,
0.7851562500,12,68.0000000000,,,
0.7871093750,12,35.0000000000,,,
0.7890625000,12,24.0000000000,,,
0.7910156250,12,28.0000000000,,,
0.7929687500,12,11.0000000000,,,
0.7949218750,12,19.0000000000,,,
0.7968750000,12,58.0000000000,,,
0.7988281250,12,100.0000000000,,,
0.8007812500,12,107.0000000000,,,
0.8027343750,12,96.0000000000,,,
0.8046875000,12,113.0000000000,,,
0.8066406250,12,101.0000000000,,,
0.8085937500,12,60.0000000000,,,
0.8105468750,12,100.0000000000,,,
0.8125000000,13,170.0000000000,,,
0.8144531250,13,137.0000000000,,,
0.8164062500,13,60.0000000000,,,
0.8183593750,13,43.0000000000,,,
0.8203125000,13,67.0000000000,,,
0.8222656250,13,60.0000000000,,,
0.8242187500,13,40.0000000000,,,
0.8261718750,13,44.0000000000,,,
0.8281250000,13,90.0000000000,,,
0.8300781250,13,132.0000000000,,,
0.8320312500,13,148.0000000000,,,
0.8339843750,13,68.0000000000,,,
0.8359375000,13,-24.0000000000,,,
0.8378906250,13,-11.0000000000,,,
0.8398437500,13,20.0000000000,,,
0.8417968750,13,23.0000000000,,,
0.8437500000,13,40.0000000000,,,
0.8457031250,13,27.0000000000,,,
0.8476562500,13,-10.0000000000,,,
0.8496093750,13,-17.0000000000,,,
0.8515625000,13,10.0000000000,,,
0.8535156250,13,-23.0000000000,,,
0.8554687500,13,-70.0000000000,,,
0.8574218750,13,-51.0000000000,,,
0.8593750000,13,-38.0000000000,,,
0.8613281250,13,-60.0000000000,,,
0.8632812500,13,-65.0000000000,,,
0.8652343750,13,17.0000000000,,,
0.8671875000,13,80.0000000000,,,
0.8691406250,13,52.0000000000,,,
0.8710937500,13,26.0000000000,,,
0.8730468750,13,37.0000000000,,,
0.8750000000,14,44.0000000000,,,
0.8769531250,14,25.0000000000,,,
0.8789062500,14,-19.0000000000,,,
0.8808593750,14,-57.0000000000,,,
0.8828125000,14,-33.0000000000,,,
0.8847656250,14,-4.0000000000,,,
0.8867187500,14,-20.0000000000,,,
0.8886718750,14,-57.0000000000,,,
0.8906250000,14,-66.0000000000,,,
0.8925781250,14,-20.0000000000,,,
0.8945312500,14,18.0000000000,,,
0.8964843750,14,-14.0000000000,,,
0.8984375000,14,-77.0000000000,,,
0.9003906250,14,-91.0000000000,,,
0.9023437500,14,-17.0000000000,,,
0.9042968750,14,83.0000000000,,,
0.9062500000,14,52.0000000000,,,
0.9082031250,14,-58.0000000000,,,
0.9101562500,14,-78.0000000000,,,
0.9121093750,14,0.0000000000,,,
0.9140625000,14,38.0000000000,,,
0.9160156250,14,-5.0000000000,,,
0.9179687500,14,-22.0000000000,,,
0.9199218750,14,-8.0000000000,,,
0.9218750000,14,25.0000000000,,,
0.9238281250,14,91.0000000000,,,
0.9257812500,14,101.0000000000,,,
0.9277343750,14,19.0000000000,,,
0.9296875000,14,-23.0000000000,,,
0.9316406250,14,11.0000000000,,,
0.9335937500,14,11.0000000000,,,
0.9355468750,14,17.0000000000,,,
0.9375000000,15,53.0000000000,,,
0.9394531250,15,76.0000000000,,,
0.9414062500,15,86.0000000000,,,
0.9433593750,15,42.0000000000,,,
0.9453125000,15,11.0000000000,,,
0.9472656250,15,57.0000000000,,,
0.9492187500,15,100.0000000000,,,
0.9511718750,15,81.0000000000,,,
0.9531250000,15,44.0000000000,,,
0.9550781250,15,36.0000000000,,,
0.9570312500,15,22.0000000000,,,
0.9589843750,15,44.0000000000,,,
0.9609375000,15,107.0000000000,,,
0.9628906250,15,167.0000000000,,,
0.9648437500,15,169.0000000000,,,
0.9667968750,15,77.0000000000,,,
0.9687500000,15,-11.0000000000,,,
0.9707031250,15,-46.0000000000,,,
0.9726562500,15,-55.0000000000,,,
0.9746093750,15,-42.0000000000,,,
0.9765625000,15,-29.0000000000,,,
0.9785156250,15,-18.0000000000,,,
0.9804687500,15,-11.0000000000,,,
0.9824218750,15,25.0000000000,,,
0.9843750000,15,119.0000000000,,,
0.9863281250,15,147.0000000000,,,
0.9882812500,15,64.0000000000,,,
0.9902343750,15,9.0000000000,,,
0.9921875000,15,-13.0000000000,,,
0.9941406250,15,-20.0000000000,,,
0.9960937500,15,0.0000000000,,,
0.9980468750,15,-13.0000000000,,,
1.0000000000,16,-49.0000000000,,,
1.0019531250,16,-22.0000000000,,,
1.0039062500,16,37.0000000000,,,
1.0058593750,16,91.0000000000,,,
1.0078125000,16,134.0000000000,,,
1.0097656250,16,118.0000000000,,,
1.0117187500,16,69.0000000000,,,
1.0136718750,16,60.0000000000,,,
1.0156250000,16,118.0000000000,,,
1.0175781250,16,123.0000000000,,,
1.0195312500,16,71.0000000000,,,
1.0214843750,16,19.0000000000,,,
1.0234375000,16,-18.0000000000,,,
1.0253906250,16,-1.0000000000,,,
1.0273437500,16,37.0000000000,,,
1.0292968750,16,39.0000000000,,,
1.0312500000,16,13.0000000000,,,
1.0332031250,16,12.0000000000,,,
1.0351562500,16,56.0000000000,,,
1.0371093750,16,116.0000000000,,,
1.0390625000,16,161.0000000000,,,
1.0410156250,16,120.0000000000,,,
1.0429687500,16,72.0000000000,,,
1.0449218750,16,26.0000000000,,,
1.0468750000,16,-35.0000000000,,,
1.0488281250,16,-28.0000000000,,,
1.0507812500,16,-3.0000000000,,,
1.0527343750,16,-14.0000000000,,,
1.0546875000,16,-19.0000000000,,,
1.0566406250,16,4.0000000000,,,
1.0585937500,16,4.0000000000,,,
1.0605468750,16,20.0000000000,,,
1.0625000000,17,86.0000000000,,,
1.0644531250,17,124.0000000000,,,
1.0664062500,17,136.0000000000,,,
1.0683593750,17,137.0000000000,,,
1.0703125000,17,122.0000000000,,,
1.0722656250,17,102.0000000000,,,
1.0742187500,17,44.0000000000,,,
1.0761718750,17,-2.0000000000,,,
1.0781250000,17,42.0000000000,,,
1.0800781250,17,90.0000000000,,,
1.0820312500,17,57.0000000000,,,
1.0839843750,17,5.0000000000,,,
1.0859375000,17,1.0000000000,,,
1.0878906250,17,88.0000000000,,,
1.0898437500,17,180.0000000000,,,
1.0917968750,17,160.0000000000,,,
1.0937500000,17,121.0000000000,,,
1.0957031250,17,93.0000000000,,,
1.0976562500,17,29.0000000000,,,
1.0996093750,17,-17.0000000000,,,
1.1015625000,17,3.0000000000,,,
1.1035156250,17,58.0000000000,33552,1.1035156250,0.0000000000
1.1054687500,17,74.0000000000,,,
1.1074218750,17,113.0000000000,,,
1.1093750000,17,120.0000000000,,,
1.1113281250,17,84.0000000000,,,
1.1132812500,17,34.0000000000,,,
1.1152343750,17,22.0000000000,,,
1.1171875000,17,74.0000000000,,,
1.1191406250,17,80.0000000000,,,
1.1210937500,17,-7.0000000000,,,
1.1230468750,17,-2.0000000000,,,
1.1250000000,18,89.0000000000,,,
1.1269531250,18,138.0000000000,,,
1.1289062500,18,162.0000000000,,,
1.1308593750,18,164.0000000000,,,
1.1328125000,18,81.0000000000,,,
1.1347656250,18,-29.0000000000,,,
1.1367187500,18,-37.0000000000,,,
1.1386718750,18,42.0000000000,,,
1.1406250000,18,154.0000000000,,,
1.1425781250,18,197.0000000000,,,
1.1445312500,18,119.0000000000,,,
1.1464843750,18,76.0000000000,,,
1.1484375000,18,113.0000000000,,,
1.1503906250,18,91.0000000000,,,
1.1523437500,18,35.0000000000,,,
1.1542968750,18,23.0000000000,,,
1.1562500000,18,77.0000000000,,,
1.1582031250,18,107.0000000000,,,
1.1601562500,18,69.0000000000,,,
1.1621093750,18,57.0000000000,,,
1.1640625000,18,100.0000000000,,,
1.1660156250,18,147.0000000000,,,
1.1679687500,18,167.0000000000,,,
1.1699218750,18,135.0000000000,,,
1.1718750000,18,51.0000000000,,,
1.1738281250,18,-25.0000000000,,,
1.1757812500,18,-41.0000000000,,,
1.1777343750,18,-26.0000000000,,,
1.1796875000,18,-37.0000000000,,,
1.1816406250,18,9.0000000000,,,
1.1835937500,18,116.0000000000,,,
1.1855468750,18,163.0000000000,,,
1.1875000000,19,152.0000000000,,,
1.1894531250,19,106.0000000000,,,
1.1914062500,19,60.0000000000,,,
1.1933593750,19,-5.0000000000,,,
1.1953125000,19,-50.0000000000,,,
1.1972656250,19,-17.0000000000,,,
1.1992187500,19,44.0000000000,,,
1.2011718750,19,45.0000000000,,,
1.2031250000,19,-33.0000000000,,,
1.2050781250,19,-45.0000000000,,,
1.2070312500,19,-11.0000000000,,,
1.2089843750,19,18.0000000000,,,
1.2109375000,19,66.0000000000,,,
1.2128906250,19,105.0000000000,,,
1.2148437500,19,25.0000000000,,,
1.2167968750,19,-61.0000000000,,,
1.2187500000,19,-49.0000000000,,,
1.2207031250,19,2.0000000000,,,
1.2226562500,19,56.0000000000,,,
1.2246093750,19,82.0000000000,,,
1.2265625000,19,85.0000000000,,,
1.2285156250,19,83.0000000000,,,
1.2304687500,19,49.0000000000,,,
1.2324218750,19,10.0000000000,,,
1.2343750000,19,32.0000000000,,,
1.2363281250,19,104.0000000000,,,
1.2382812500,19,144.0000000000,,,
1.2402343750,19,101.0000000000,,,
1.2421875000,19,25.0000000000,,,
1.2441406250,19,4.0000000000,,,
1.2460937500,19,50.0000000000,,,
1.2480468750,19,135.0000000000,,,
1.2500000000,20,134.0000000000,,,
1.2519531250,20,48.0000000000,,,
1.2539062500,20,23.0000000000,,,
1.2558593750,20,42.0000000000,,,
1.2578125000,20,28.0000000000,,,
1.2597656250,20,-6.0000000000,,,
1.2617187500,20,-22.0000000000,,,
1.2636718750,20,-14.0000000000,,,
1.2656250000,20,6.0000000000,,,
1.2675781250,20,54.0000000000,,,
1.2695312500,20,43.0000000000,,,
1.2714843750,20,3.0000000000,,,
1.2734375000,20,27.0000000000,,,
1.2753906250,20,92.0000000000,,,
1.2773437500,20,133.0000000000,,,
1.2792968750,20,197.0000000000,,,
1.2812500000,20,138.0000000000,,,
1.2832031250,20,-37.0000000000,,,
1.2851562500,20,-107.0000000000,,,
1.2871093750,20,-62.0000000000,,,
1.2890625000,20,-13.0000000000,,,
1.2910156250,20,49.0000000000,,,
1.2929687500,20,105.0000000000,,,
1.2949218750,20,137.0000000000,,,
1.2968750000,20,169.0000000000,,,
1.2988281250,20,152.0000000000,,,
1.3007812500,20,109.0000000000,,,
1.3027343750,20,90.0000000000,,,
1.3046875000,20,121.0000000000,,,
1.3066406250,20,90.0000000000,,,
1.3085937500,20,-7.0000000000,,,
1.3105468750,20,-42.0000000000,,,
1.3125000000,21,-26.0000000000,,,
1.3144531250,21,13.0000000000,,,
1.3164062500,21,70.0000000000,,,
1.3183593750,21,112.0000000000,,,
1.3203125000,21,101.0000000000,,,
1.3222656250,21,82.0000000000,,,
1.3242187500,21,101.0000000000,,,
1.3261718750,21,88.0000000000,,,
1.3281250000,21,84.0000000000,,,
1.3300781250,21,90.0000000000,,,
1.3320312500,21,60.0000000000,,,
1.3339843750,21,12.0000000000,,,
1.3359375000,21,25.0000000000,,,
1.3378906250,21,93.0000000000,,,
1.3398437500,21,104.0000000000,,,
1.3417968750,21,53.0000000000,,,
1.3437500000,21,54.0000000000,,,
1.3457031250,21,85.0000000000,,,
1.3476562500,21,103.0000000000,,,
1.3496093750,21,124.0000000000,,,
1.3515625000,21,90.0000000000,,,
1.3535156250,21,75.0000000000,,,
1.3554687500,21,70.0000000000,,,
1.3574218750,21,8.0000000000,,,
1.3593750000,21,-85.0000000000,,,
1.3613281250,21,-169.0000000000,,,
1.3632812500,21,-172.0000000000,,,
1.3652343750,21,-87.0000000000,,,
1.3671875000,21,5.0000000000,,,
1.3691406250,21,52.0000000000,,,
1.3710937500,21,45.0000000000,,,
1.3730468750,21,18.0000000000,,,
1.3750000000,22,40.0000000000,,,
1.3769531250,22,107.0000000000,,,
1.3789062500,22,151.0000000000,,,
1.3808593750,22,102.0000000000,,,
1.3828125000,22,-22.0000000000,,,
1.3847656250,22,-74.0000000000,,,
1.3867187500,22,-52.0000000000,,,
1.3886718750,22,-26.0000000000,,,
1.3906250000,22,-8.0000000000,,,
1.3925781250,22,17.0000000000,,,
1.3945312500,22,20.0000000000,,,
1.3964843750,22,-22.0000000000,,,
1.3984375000,22,-27.0000000000,,,
1.4003906250,22,24.0000000000,,,
1.4023437500,22,38.0000000000,,,
1.4042968750,22,-10.0000000000,,,
1.4062500000,22,-51.0000000000,,,
1.4082031250,22,-60.0000000000,,,
1.4101562500,22,-29.0000000000,,,
1.4121093750,22,25.0000000000,,,
1.4140625000,22,8.0000000000,,,
1.4160156250,22,-45.0000000000,,,
1.4179687500,22,-52.0000000000,,,
1.4199218750,22,-37.0000000000,,,
1.4218750000,22,-25.0000000000,,,
1.4238281250,22,6.0000000000,,,
1.4257812500,22,55.0000000000,,,
1.4277343750,22,48.0000000000,,,
1.4296875000,22,16.0000000000,,,
1.4316406250,22,66.0000000000,,,
1.4335937500,22,123.0000000000,,,
1.4355468750,22,75.0000000000,,,
1.4375000000,23,0.0000000000,,,
1.4394531250,23,-13.0000000000,,,
1.4414062500,23,-11.0000000000,,,
1.4433593750,23,0.0000000000,,,
1.4453125000,23,52.0000000000,,,
1.4472656250,23,81.0000000000,,,
1.4492187500,23,26.0000000000,,,
1.4511718750,23,-22.0000000000,,,
1.4531250000,23,5.0000000000,,,
1.4550781250,23,74.0000000000,,,
1.4570312500,23,74.0000000000,,,
1.4589843750,23,4.0000000000,,,
1.4609375000,23,-21.0000000000,,,
1.4628906250,23,5.0000000000,,,
1.4648437500,23,36.0000000000,,,
1.4667968750,23,21.0000000000,,,
1.4687500000,23,4.0000000000,,,
1.4707031250,23,32.0000000000,,,
1.4726562500,23,72.0000000000,,,
1.4746093750,23,107.0000000000,,,
1.4765625000,23,73.0000000000,,,
1.4785156250,23,-8.0000000000,,,
1.4804687500,23,-46.0000000000,,,
1.4824218750,23,-34.0000000000,,,
1.4843750000,23,-7.0000000000,,,
1.4863281250,23,-1.0000000000,,,
1.4882812500,23,7.0000000000,,,
1.4902343750,23,4.0000000000,,,
1.4921875000,23,22.0000000000,,,
1.4941406250,23,76.0000000000,,,
1.4960937500,23,128.0000000000,,,
1.4980468750,23,107.0000000000,,,
1.5000000000,24,1.0000000000,,,
1.5019531250,24,-50.0000000000,,,
1.5039062500,24,-24.0000000000,,,
1.5058593750,24,16.0000000000,,,
1.5078125000,24,40.0000000000,,,
1.5097656250,24,-4.0000000000,,,
1.5117187500,24,-51.0000000000,,,
1.5136718750,24,-21.0000000000,,,
1.5156250000,24,54.0000000000,,,
1.5175781250,24,102.0000000000,,,
1.5195312500,24,105.0000000000,,,
1.5214843750,24,91.0000000000,,,
1.5234375000,24,39.0000000000,,,
1.5253906250,24,-17.0000000000,,,
1.5273437500,24,-12.0000000000,,,
1.5292968750,24,-7.0000000000,,,
1.5312500000,24,-46.0000000000,,,
1.5332031250,24,-28.0000000000,,,
1.5351562500,24,8.0000000000,,,
1.5371093750,24,-50.0000000000,,,
1.5390625000,24,-114.0000000000,,,
1.5410156250,24,-131.0000000000,,,
1.5429687500,24,-119.0000000000,,,
1.5449218750,24,-68.0000000000,,,
1.5468750000,24,0.0000000000,,,
1.5488281250,24,-40.0000000000,,,
1.5507812500,24,-98.0000000000,,,
1.5527343750,24,-54.0000000000,,,
1.5546875000,24,-10.0000000000,,,
1.5566406250,24,-28.0000000000,,,
1.5585937500,24,-61.0000000000,,,
1.5605468750,24,-72.0000000000,,,
1.5625000000,25,-51.0000000000,,,
1.5644531250,25,-25.0000000000,,,
1.5664062500,25,34.0000000000,,,
1.5683593750,25,81.0000000000,,,
1.5703125000,25,40.0000000000,,,
1.5722656250,25,-6.0000000000,,,
1.5742187500,25,-2.0000000000,,,
1.5761718750,25,8.0000000000,,,
1.5781250000,25,-29.0000000000,,,
1.5800781250,25,-69.0000000000,,,
1.5820312500,25,-29.0000000000,,,
1.5839843750,25,73.0000000000,,,
1.5859375000,25,139.0000000000,,,
1.5878906250,25,100.0000000000,,,
1.5898437500,25,57.0000000000,,,
1.5917968750,25,83.0000000000,,,
1.5937500000,25,101.0000000000,,,
1.5957031250,25,90.0000000000,,,
1.5976562500,25,74.0000000000,,,
1.5996093750,25,37.0000000000,,,
1.6015625000,25,25.0000000000,,,
1.6035156250,25,43.0000000000,,,
1.6054687500,25,22.0000000000,,,
1.6074218750,25,29.0000000000,,,
1.6093750000,25,72.0000000000,,,
1.6113281250,25,112.0000000000,,,
1.6132812500,25,128.0000000000,,,
1.6152343750,25,83.0000000000,,,
1.6171875000,25,38.0000000000,,,
1.6191406250,25,52.0000000000,,,
1.6210937500,25,36.0000000000,,,
1.6230468750,25,35.0000000000,,,
1.6250000000,26,98.0000000000,,,
1.6269531250,26,145.0000000000,,,
1.6289062500,26,125.0000000000,,,
1.6308593750,26,59.0000000000,,,
1.6328125000,26,7.0000000000,,,
1.6347656250,26,-5.0000000000,,,
1.6367187500,26,32.0000000000,,,
1.6386718750,26,100.0000000000,,,
1.6406250000,26,144.0000000000,,,
1.6425781250,26,137.0000000000,,,
1.6445312500,26,117.0000000000,,,
1.6464843750,26,106.0000000000,,,
1.6484375000,26,97.0000000000,,,
1.6503906250,26,106.0000000000,,,
1.6523437500,26,128.0000000000,,,
1.6542968750,26,112.0000000000,,,
1.6562500000,26,53.0000000000,,,
1.6582031250,26,-7.0000000000,,,
1.6601562500,26,-24.0000000000,,,
1.6621093750,26,4.0000000000,,,
1.6640625000,26,28.0000000000,,,
1.6660156250,26,70.0000000000,,,
1.6679687500,26,105.0000000000,,,
1.6699218750,26,53.0000000000,,,
1.6718750000,26,24.0000000000,,,
1.6738281250,26,51.0000000000,,,
1.6757812500,26,69.0000000000,,,
1.6777343750,26,6.0000000000,,,
1.6796875000,26,-38.0000000000,,,
1.6816406250,26,-53.0000000000,,,
1.6835937500,26,-71.0000000000,,,
1.6855468750,26,-97.0000000000,,,
1.6875000000,27,-105.0000000000,,,
1.6894531250,27,-67.0000000000,,,
1.6914062500,27,-39.0000000000,,,
1.6933593750,27,-50.0000000000,,,
1.6953125000,27,-53.0000000000,,,
1.6972656250,27,-46.0000000000,,,
1.6992187500,27,-45.0000000000,,,
1.7011718750,27,-50.0000000000,,,
1.7031250000,27,-74.0000000000,,,
1.7050781250,27,-86.0000000000,,,
1.7070312500,27,-101.0000000000,,,
1.7089843750,27,-131.0000000000,,,
1.7109375000,27,-132.0000000000,,,
1.7128906250,27,-82.0000000000,,,
1.7148437500,27,-17.0000000000,,,
1.7167968750,27,29.0000000000,,,
1.7187500000,27,33.0000000000,,,
1.7207031250,27,49.0000000000,,,
1.7226562500,27,34.0000000000,,,
1.7246093750,27,19.0000000000,,,
1.7265625000,27,57.0000000000,,,
1.7285156250,27,92.0000000000,,,
1.7304687500,27,74.0000000000,,,
1.7324218750,27,45.0000000000,,,
1.7343750000,27,65.0000000000,,,
1.7363281250,27,117.0000000000,,,
1.7382812500,27,144.0000000000,,,
1.7402343750,27,124.0000000000,,,
1.7421875000,27,125.0000000000,,,
1.7441406250,27,201.0000000000,,,
1.7460937500,27,230.0000000000,,,
1.7480468750,27,178.0000000000,,,
1.7500000000,28,104.0000000000,,,
1.7519531250,28,83.0000000000,,,
1.7539062500,28,104.0000000000,,,
1.7558593750,28,154.0000000000,,,
1.7578125000,28,202.0000000000,,,
1.7597656250,28,186.0000000000,,,
1.7617187500,28,144.0000000000,,,
1.7636718750,28,116.0000000000,,,
1.7656250000,28,67.0000000000,,,
1.7675781250,28,17.0000000000,,,
1.7695312500,28,55.0000000000,,,
1.7714843750,28,121.0000000000,,,
1.7734375000,28,140.0000000000,,,
1.7753906250,28,162.0000000000,,,
1.7773437500,28,152.0000000000,,,
1.7792968750,28,65.0000000000,,,
1.7812500000,28,27.0000000000,,,
1.7832031250,28,102.0000000000,,,
1.7851562500,28,184.0000000000,,,
1.7871093750,28,195.0000000000,,,
1.7890625000,28,141.0000000000,,,
1.7910156250,28,65.0000000000,,,
1.7929687500,28,7.0000000000,,,
1.7949218750,28,84.0000000000,,,
1.7968750000,28,150.0000000000,,,
1.7988281250,28,130.0000000000,,,
1.8007812500,28,91.0000000000,,,
1.8027343750,28,40.0000000000,,,
1.8046875000,28,7.0000000000,,,
1.8066406250,28,3.0000000000,,,
1.8085937500,28,12.0000000000,,,
1.8105468750,28,41.0000000000,,,
1.8125000000,29,90.0000000000,,,
1.8144531250,29,76.0000000000,,,
1.8164062500,29,43.0000000000,,,
1.8183593750,29,19.0000000000,,,
1.8203125000,29,-7.0000000000,,,
1.8222656250,29,-24.0000000000,,,
1.8242187500,29,12.0000000000,,,
1.8261718750,29,55.0000000000,,,
1.8281250000,29,27.0000000000,,,
1.8300781250,29,-60.0000000000,,,
1.8320312500,29,-85.0000000000,,,
1.8339843750,29,-23.0000000000,,,
1.8359375000,29,38.0000000000,,,
1.8378906250,29,91.0000000000,,,
1.8398437500,29,144.0000000000,,,
1.8417968750,29,133.0000000000,,,
1.8437500000,29,102.0000000000,,,
1.8457031250,29,103.0000000000,,,
1.8476562500,29,138.0000000000,,,
1.8496093750,29,163.0000000000,,,
1.8515625000,29,183.0000000000,33553,1.8515625000,0.0019531250
1.8535156250,29,183.0000000000,33554,1.8535156250,0.0000000000
1.8554687500,29,185.0000000000,,,
1.8574218750,29,121.0000000000,,,
1.8593750000,29,51.0000000000,,,
1.8613281250,29,25.0000000000,,,
1.8632812500,29,33.0000000000,,,
1.8652343750,29,6.0000000000,,,
1.8671875000,29,-33.0000000000,,,
1.8691406250,29,-46.0000000000,,,
1.8710937500,29,-42.0000000000,,,
1.8730468750,29,-39.0000000000,,,
1.8750000000,30,-24.0000000000,,,
1.8769531250,30,3.0000000000,,,
1.8789062500,30,54.0000000000,,,
1.8808593750,30,82.0000000000,,,
1.8828125000,30,84.0000000000,,,
1.8847656250,30,82.0000000000,,,
1.8867187500,30,67.0000000000,,,
1.8886718750,30,67.0000000000,,,
1.8906250000,30,56.0000000000,,,
1.8925781250,30,20.0000000000,,,
1.8945312500,30,-44.0000000000,,,
1.8964843750,30,-85.0000000000,,,
1.8984375000,30,-82.0000000000,,,
1.9003906250,30,-50.0000000000,,,
1.9023437500,30,-17.0000000000,,,
1.9042968750,30,41.0000000000,,,
1.9062500000,30,100.0000000000,,,
1.9082031250,30,73.0000000000,,,
1.9101562500,30,67.0000000000,,,
1.9121093750,30,83.0000000000,,,
1.9140625000,30,85.0000000000,,,
1.9160156250,30,118.0000000000,,,
1.9179687500,30,134.0000000000,,,
1.9199218750,30,54.0000000000,,,
1.9218750000,30,-26.0000000000,,,
1.9238281250,30,-41.0000000000,,,
1.9257812500,30,-4.0000000000,,,
1.9277343750,30,49.0000000000,,,
1.9296875000,30,97.0000000000,,,
1.9316406250,30,102.0000000000,,,
1.9335937500,30,105.0000000000,,,
1.9355468750,30,131.0000000000,,,
1.9375000000,31,128.0000000000,,,
1.9394531250,31,66.0000000000,,,
1.9414062500,31,34.0000000000,,,
1.9433593750,31,59.0000000000,,,
1.9453125000,31,80.0000000000,,,
1.9472656250,31,87.0000000000,,,
1.9492187500,31,89.0000000000,,,
1.9511718750,31,56.0000000000,,,
1.9531250000,31,61.0000000000,,,
1.9550781250,31,120.0000000000,,,
1.9570312500,31,135.0000000000,,,
1.9589843750,31,118.0000000000,,,
1.9609375000,31,150.0000000000,,,
1.9628906250,31,154.0000000000,,,
1.9648437500,31,71.0000000000,,,
1.9667968750,31,28.0000000000,,,
1.9687500000,31,64.0000000000,,,
1.9707031250,31,91.0000000000,,,
1.9726562500,31,100.0000000000,,,
1.9746093750,31,141.0000000000,,,
1.9765625000,31,163.0000000000,,,
1.9785156250,31,107.0000000000,,,
1.9804687500,31,83.0000000000,,,
1.9824218750,31,133.0000000000,,,
1.9843750000,31,162.0000000000,,,
1.9863281250,31,138.0000000000,,,
1.9882812500,31,91.0000000000,,,
1.9902343750,31,71.0000000000,,,
1.9921875000,31,69.0000000000,,,
1.9941406250,31,102.0000000000,,,
1.9960937500,31,153.0000000000,,,
1.9980468750,31,187.0000000000,,,
2.0000000000,32,225.0000000000,,,
2.0019531250,32,204.0000000000,,,
2.0039062500,32,133.0000000000,,,
2.0058593750,32,86.0000000000,,,
2.0078125000,32,74.0000000000,,,
2.0097656250,32,123.0000000000,,,
2.0117187500,32,151.0000000000,,,
2.0136718750,32,80.0000000000,,,
2.0156250000,32,34.0000000000,,,
2.0175781250,32,80.0000000000,,,
2.0195312500,32,182.0000000000,,,
2.0214843750,32,227.0000000000,,,
2.0234375000,32,176.0000000000,,,
2.0253906250,32,121.0000000000,,,
2.0273437500,32,148.0000000000,,,
2.0292968750,32,210.0000000000,,,
2.0312500000,32,154.0000000000,,,
2.0332031250,32,25.0000000000,,,
2.0351562500,32,-40.0000000000,,,
2.0371093750,32,2.0000000000,,,
2.0390625000,32,97.0000000000,,,
2.0410156250,32,185.0000000000,,,
2.0429687500,32,178.0000000000,,,
2.0449218750,32,92.0000000000,,,
2.0468750000,32,73.0000000000,,,
2.0488281250,32,121.0000000000,,,
2.0507812500,32,154.0000000000,,,
2.0527343750,32,112.0000000000,,,
2.0546875000,32,33.0000000000,,,
2.0566406250,32,16.0000000000,,,
2.0585937500,32,44.0000000000,,,
2.0605468750,32,44.0000000000,,,
2.0625000000,33,5.0000000000,,,
2.0644531250,33,-36.0000000000,,,
2.0664062500,33,-26.0000000000,,,
2.0683593750,33,18.0000000000,,,
2.0703125000,33,64.0000000000,,,
2.0722656250,33,76.0000000000,,,
2.0742187500,33,39.0000000000,,,
2.0761718750,33,0.0000000000,,,
2.0781250000,33,-26.0000000000,,,
2.0800781250,33,-4.0000000000,,,
2.0820312500,33,93.0000000000,,,
2.0839843750,33,152.0000000000,,,
2.0859375000,33,64.0000000000,,,
2.0878906250,33,-36.0000000000,,,
2.0898437500,33,-56.0000000000,,,
2.0917968750,33,-55.0000000000,,,
2.0937500000,33,-56.0000000000,,,
2.0957031250,33,-77.0000000000,,,
2.0976562500,33,-92.0000000000,,,
2.0996093750,33,-90.0000000000,,,
2.1015625000,33,-44.0000000000,,,
2.1035156250,33,17.0000000000,,,
2.1054687500,33,22.0000000000,,,
2.1074218750,33,-25.0000000000,,,
2.1093750000,33,-44.0000000000,,,
2.1113281250,33,-26.0000000000,,,
2.1132812500,33,-8.0000000000,,,
2.1152343750,33,2.0000000000,,,
2.1171875000,33,10.0000000000,,,
2.1191406250,33,-6.0000000000,,,
2.1210937500,33,-10.0000000000,,,
2.1230468750,33,-5.0000000000,,,
2.1250000000,34,-30.0000000000,,,
2.1269531250,34,-27.0000000000,,,
2.1289062500,34,-7.0000000000,,,
2.1308593750,34,-13.0000000000,,,
2.1328125000,34,-6.0000000000,,,
2.1347656250,34,25.0000000000,,,
2.1367187500,34,40.0000000000,,,
2.1386718750,34,32.0000000000,,,
2.1406250000,34,9.0000000000,,,
2.1425781250,34,-13.0000000000,,,
2.1445312500,34,-13.0000000000,,,
2.1464843750,34,35.0000000000,,,
2.1484375000,34,38.0000000000,,,
2.1503906250,34,1.0000000000,,,
2.1523437500,34,-33.0000000000,,,
2.1542968750,34,-11.0000000000,,,
2.1562500000,34,12.0000000000,,,
2.1582031250,34,-12.0000000000,,,
2.1601562500,34,-26.0000000000,,,
2.1621093750,34,-17.0000000000,,,
2.1640625000,34,-20.0000000000,,,
2.1660156250,34,35.0000000000,,,
2.1679687500,34,81.0000000000,,,
2.1699218750,34,-5.0000000000,,,
2.1718750000,34,-82.0000000000,,,
2.1738281250,34,-84.0000000000,,,
2.1757812500,34,-46.0000000000,,,
2.1777343750,34,-27.0000000000,,,
2.1796875000,34,-86.0000000000,,,
2.1816406250,34,-147.0000000000,,,
2.1835937500,34,-181.0000000000,,,
2.1855468750,34,-166.0000000000,,,
2.1875000000,35,-84.0000000000,,,
2.1894531250,35,35.0000000000,,,
2.1914062500,35,105.0000000000,,,
2.1933593750,35,50.0000000000,,,
2.1953125000,35,-54.0000000000,,,
2.1972656250,35,-54.0000000000,,,
2.1992187500,35,18.0000000000,,,
2.2011718750,35,3.0000000000,,,
2.2031250000,35,-88.0000000000,,,
2.2050781250,35,-162.0000000000,,,
2.2070312500,35,-146.0000000000,,,
2.2089843750,35,-81.0000000000,,,
2.2109375000,35,-76.0000000000,,,
2.2128906250,35,-90.0000000000,,,
2.2148437500,35,-83.0000000000,,,
2.2167968750,35,-65.0000000000,,,
2.2187500000,35,-37.0000000000,,,
2.2207031250,35,2.0000000000,,,
2.2226562500,35,26.0000000000,,,
2.2246093750,35,85.0000000000,,,
2.2265625000,35,115.0000000000,,,
2.2285156250,35,117.0000000000,,,
2.2304687500,35,156.0000000000,,,
2.2324218750,35,152.0000000000,,,
2.2343750000,35,86.0000000000,,,
2.2363281250,35,42.0000000000,,,
2.2382812500,35,27.0000000000,,,
2.2402343750,35,53.0000000000,,,
2.2421875000,35,81.0000000000,,,
2.2441406250,35,86.0000000000,,,
2.2460937500,35,114.0000000000,,,
2.2480468750,35,135.0000000000,,,
2.2500000000,36,164.0000000000,,,
2.2519531250,36,244.0000000000,,,
2.2539062500,36,211.0000000000,,,
2.2558593750,36,43.0000000000,,,
2.2578125000,36,-58.0000000000,,,
2.2597656250,36,-29.0000000000,,,
2.2617187500,36,7.0000000000,,,
2.2636718750,36,-14.0000000000,,,
2.2656250000,36,-45.0000000000,,,
2.2675781250,36,-73.0000000000,,,
2.2695312500,36,-17.0000000000,,,
2.2714843750,36,87.0000000000,,,
2.2734375000,36,103.0000000000,,,
2.2753906250,36,57.0000000000,,,
2.2773437500,36,40.0000000000,,,
2.2792968750,36,66.0000000000,,,
2.2812500000,36,28.0000000000,,,
2.2832031250,36,-42.0000000000,,,
2.2851562500,36,-53.0000000000,,,
2.2871093750,36,-1.0000000000,,,
2.2890625000,36,52.0000000000,,,
2.2910156250,36,21.0000000000,,,
2.2929687500,36,-30.0000000000,,,
2.2949218750,36,-3.0000000000,,,
2.2968750000,36,52.0000000000,,,
2.2988281250,36,41.0000000000,,,
2.3007812500,36,22.0000000000,,,
2.3027343750,36,34.0000000000,,,
2.3046875000,36,77.0000000000,,,
2.3066406250,36,136.0000000000,,,
2.3085937500,36,97.0000000000,,,
2.3105468750,36,56.0000000000,,,
2.3125000000,37,75.0000000000,,,
2.3144531250,37,103.0000000000,,,
2.3164062500,37,59.0000000000,,,
2.3183593750,37,-44.0000000000,,,
2.3203125000,37,-89.0000000000,,,
2.3222656250,37,-22.0000000000,,,
2.3242187500,37,103.0000000000,,,
2.3261718750,37,194.0000000000,,,
2.3281250000,37,198.0000000000,,,
2.3300781250,37,173.0000000000,,,
2.3320312500,37,192.0000000000,,,
2.3339843750,37,242.0000000000,,,
2.3359375000,37,195.0000000000,,,
2.3378906250,37,93.0000000000,,,
2.3398437500,37,48.0000000000,,,
2.3417968750,37,5.0000000000,,,
2.3437500000,37,-54.0000000000,,,
2.3457031250,37,-68.0000000000,,,
2.3476562500,37,-11.0000000000,,,
2.3496093750,37,33.0000000000,,,
2.3515625000,37,53.0000000000,,,
2.3535156250,37,105.0000000000,,,
2.3554687500,37,122.0000000000,,,
2.3574218750,37,96.0000000000,,,
2.3593750000,37,84.0000000000,,,
2.3613281250,37,85.0000000000,,,
2.3632812500,37,84.0000000000,,,
2.3652343750,37,58.0000000000,,,
2.3671875000,37,83.0000000000,,,
2.3691406250,37,123.0000000000,,,
2.3710937500,37,122.0000000000,,,
2.3730468750,37,113.0000000000,,,
2.3750000000,38,113.0000000000,,,
2.3769531250,38,129.0000000000,,,
2.3789062500,38,155.0000000000,,,
2.3808593750,38,108.0000000000,,,
2.3828125000,38,18.0000000000,,,
2.3847656250,38,8.0000000000,,,
2.3867187500,38,11.0000000000,,,
2.3886718750,38,-34.0000000000,,,
2.3906250000,38,-24.0000000000,,,
2.3925781250,38,28.0000000000,,,
2.3945312500,38,83.0000000000,,,
2.3964843750,38,101.0000000000,,,
2.3984375000,38,105.0000000000,,,
2.4003906250,38,98.0000000000,,,
2.4023437500,38,120.0000000000,,,
2.4042968750,38,155.0000000000,,,
2.4062500000,38,162.0000000000,,,
2.4082031250,38,123.0000000000,,,
2.4101562500,38,43.0000000000,,,
2.4121093750,38,-18.0000000000,,,
2.4140625000,38,-22.0000000000,,,
2.4160156250,38,10.0000000000,,,
2.4179687500,38,50.0000000000,,,
2.4199218750,38,24.0000000000,,,
2.4218750000,38,18.0000000000,,,
2.4238281250,38,58.0000000000,,,
2.4257812500,38,42.0000000000,,,
2.4277343750,38,12.0000000000,,,
2.4296875000,38,59.0000000000,,,
2.4316406250,38,148.0000000000,,,
2.4335937500,38,140.0000000000,,,
2.4355468750,38,58.0000000000,,,
2.4375000000,39,20.0000000000,,,
2.4394531250,39,-10.0000000000,,,
2.4414062500,39,-51.0000000000,,,
2.4433593750,39,-57.0000000000,,,
2.4453125000,39,-9.0000000000,,,
2.4472656250,39,40.0000000000,,,
2.4492187500,39,17.0000000000,,,
2.4511718750,39,-11.0000000000,,,
2.4531250000,39,-2.0000000000,,,
2.4550781250,39,39.0000000000,,,
2.4570312500,39,105.0000000000,,,
2.4589843750,39,129.0000000000,,,
2.4609375000,39,124.0000000000,,,
2.4628906250,39,112.0000000000,,,
2.4648437500,39,89.0000000000,,,
2.4667968750,39,80.0000000000,,,
2.4687500000,39,134.0000000000,,,
2.4707031250,39,199.0000000000,,,
2.4726562500,39,186.0000000000,,,
2.4746093750,39,131.0000000000,,,
2.4765625000,39,102.0000000000,,,
2.4785156250,39,136.0000000000,,,
2.4804687500,39,181.0000000000,,,
2.4824218750,39,172.0000000000,,,
2.4843750000,39,147.0000000000,,,
2.4863281250,39,177.0000000000,,,
2.4882812500,39,201.0000000000,,,
2.4902343750,39,157.0000000000,,,
2.4921875000,39,141.0000000000,,,
2.4941406250,39,161.0000000000,,,
2.4960937500,39,154.0000000000,,,
2.4980468750,39,132.0000000000,,,
2.5000000000,40,128.0000000000,,,
2.5019531250,40,97.0000000000,,,
2.5039062500,40,42.0000000000,,,
2.5058593750,40,17.0000000000,,,
2.5078125000,40,-23.0000000000,,,
2.5097656250,40,-29.0000000000,,,
2.5117187500,40,26.0000000000,,,
2.5136718750,40,89.0000000000,,,
2.5156250000,40,112.0000000000,,,
2.5175781250,40,120.0000000000,,,
2.5195312500,40,150.0000000000,,,
2.5214843750,40,98.0000000000,,,
2.5234375000,40,8.0000000000,,,
2.5253906250,40,-12.0000000000,,,
2.5273437500,40,27.0000000000,,,
2.5292968750,40,58.0000000000,,,
2.5312500000,40,9.0000000000,,,
2.5332031250,40,-44.0000000000,,,
2.5351562500,40,-14.0000000000,,,
2.5371093750,40,44.0000000000,,,
2.5390625000,40,54.0000000000,,,
2.5410156250,40,50.0000000000,,,
2.5429687500,40,40.0000000000,,,
2.5449218750,40,39.0000000000,,,
2.5468750000,40,68.0000000000,,,
2.5488281250,40,106.0000000000,,,
2.5507812500,40,55.0000000000,,,
2.5527343750,40,12.0000000000,,,
2.5546875000,40,-2.0000000000,,,
2.5566406250,40,-20.0000000000,,,
2.5585937500,40,-30.0000000000,,,
2.5605468750,40,-42.0000000000,,,
2.5625000000,41,-65.0000000000,,,
2.5644531250,41,-73.0000000000,,,
2.5664062500,41,-50.0000000000,,,
2.5683593750,41,-39.0000000000,,,
2.5703125000,41,-58.0000000000,,,
2.5722656250,41,-33.0000000000,,,
2.5742187500,41,16.0000000000,,,
2.5761718750,41,9.0000000000,,,
2.5781250000,41,-28.0000000000,,,
2.5800781250,41,-58.0000000000,,,
2.5820312500,41,-54.0000000000,,,
2.5839843750,41,-36.0000000000,,,
2.5859375000,41,16.0000000000,,,
2.5878906250,41,121.0000000000,,,
2.5898437500,41,162.0000000000,,,
2.5917968750,41,122.0000000000,,,
2.5937500000,41,85.0000000000,,,
2.5957031250,41,101.0000000000,,,
2.5976562500,41,107.0000000000,,,
2.5996093750,41,66.0000000000,,,
2.6015625000,41,17.0000000000,,,
2.6035156250,41,-10.0000000000,,,
2.6054687500,41,-20.0000000000,,,
2.6074218750,41,-25.0000000000,,,
2.6093750000,41,-5.0000000000,,,
2.6113281250,41,28.0000000000,,,
2.6132812500,41,58.0000000000,,,
2.6152343750,41,81.0000000000,,,
2.6171875000,41,68.0000000000,,,
2.6191406250,41,38.0000000000,,,
2.6210937500,41,-1.0000000000,,,
2.6230468750,41,-37.0000000000,,,
2.6250000000,42,-43.0000000000,,,
2.6269531250,42,-6.0000000000,,,
2.6289062500,42,44.0000000000,,,
2.6308593750,42,85.0000000000,,,
2.6328125000,42,87.0000000000,,,
2.6347656250,42,82.0000000000,,,
2.6367187500,42,104.0000000000,,,
2.6386718750,42,146.0000000000,,,
2.6406250000,42,97.0000000000,,,
2.6425781250,42,28.0000000000,,,
2.6445312500,42,6.0000000000,,,
2.6464843750,42,-37.0000000000,,,
2.6484375000,42,-57.0000000000,,,
2.6503906250,42,-36.0000000000,,,
2.6523437500,42,2.0000000000,,,
2.6542968750,42,28.0000000000,,,
2.6562500000,42,45.0000000000,,,
2.6582031250,42,44.0000000000,,,
2.6601562500,42,12.0000000000,,,
2.6621093750,42,-26.0000000000,,,
2.6640625000,42,-36.0000000000,,,
2.6660156250,42,-10.0000000000,,,
2.6679687500,42,17.0000000000,,,
2.6699218750,42,72.0000000000,,,
2.6718750000,42,112.0000000000,,,
2.6738281250,42,116.0000000000,,,
2.6757812500,42,123.0000000000,,,
2.6777343750,42,65.0000000000,,,
2.6796875000,42,12.0000000000,,,
2.6816406250,42,36.0000000000,,,
2.6835937500,42,43.0000000000,,,
2.6855468750,42,26.0000000000,,,
2.6875000000,43,28.0000000000,,,
2.6894531250,43,27.0000000000,,,
2.6914062500,43,11.0000000000,,,
2.6933593750,43,51.0000000000,,,
2.6953125000,43,135.0000000000,,,
2.6972656250,43,177.0000000000,,,
2.6992187500,43,114.0000000000,,,
2.7011718750,43,18.0000000000,,,
2.7031250000,43,-8.0000000000,,,
2.7050781250,43,44.0000000000,,,
2.7070312500,43,114.0000000000,,,
2.7089843750,43,128.0000000000,,,
2.7109375000,43,81.0000000000,,,
2.7128906250,43,53.0000000000,,,
2.7148437500,43,67.0000000000,,,
2.7167968750,43,85.0000000000,,,
2.7187500000,43,88.0000000000,,,
2.7207031250,43,86.0000000000,,,
2.7226562500,43,28.0000000000,,,
2.7246093750,43,-13.0000000000,,,
2.7265625000,43,21.0000000000,,,
2.7285156250,43,75.0000000000,,,
2.7304687500,43,77.0000000000,,,
2.7324218750,43,70.0000000000,,,
2.7343750000,43,88.0000000000,,,
2.7363281250,43,83.0000000000,,,
2.7382812500,43,11.0000000000,,,
2.7402343750,43,-27.0000000000,,,
2.7421875000,43,-19.0000000000,,,
2.7441406250,43,-10.0000000000,,,
2.7460937500,43,-13.0000000000,,,
2.7480468750,43,-8.0000000000,,,
2.7500000000,44,-13.0000000000,,,
2.7519531250,44,-26.0000000000,,,
2.7539062500,44,-28.0000000000,,,
2.7558593750,44,-25.0000000000,,,
2.7578125000,44,-13.0000000000,,,
2.7597656250,44,23.0000000000,,,
2.7617187500,44,41.0000000000,,,
2.7636718750,44,17.0000000000,,,
2.7656250000,44,-18.0000000000,,,
2.7675781250,44,-22.0000000000,,,
2.7695312500,44,11.0000000000,,,
2.7714843750,44,12.0000000000,,,
2.7734375000,44,-3.0000000000,,,
2.7753906250,44,-12.0000000000,,,
2.7773437500,44,-26.0000000000,,,
2.7792968750,44,-38.0000000000,,,
2.7812500000,44,-30.0000000000,,,
2.7832031250,44,24.0000000000,,,
2.7851562500,44,74.0000000000,,,
2.7871093750,44,97.0000000000,,,
2.7890625000,44,122.0000000000,,,
2.7910156250,44,72.0000000000,,,
2.7929687500,44,2.0000000000,,,
2.7949218750,44,-6.0000000000,,,
2.7968750000,44,-17.0000000000,,,
2.7988281250,44,-38.0000000000,,,
2.8007812500,44,-7.0000000000,,,
2.8027343750,44,39.0000000000,,,
2.8046875000,44,17.0000000000,,,
2.8066406250,44,-60.0000000000,,,
2.8085937500,44,-98.0000000000,,,
2.8105468750,44,-71.0000000000,,,
2.8125000000,45,-23.0000000000,,,
2.8144531250,45,-20.0000000000,,,
2.8164062500,45,-58.0000000000,,,
2.8183593750,45,-100.0000000000,,,
2.8203125000,45,-141.0000000000,,,
2.8222656250,45,-147.0000000000,,,
2.8242187500,45,-102.0000000000,,,
2.8261718750,45,-56.0000000000,,,
2.8281250000,45,-65.0000000000,,,
2.8300781250,45,-86.0000000000,,,
2.8320312500,45,-104.0000000000,,,
2.8339843750,45,-107.0000000000,,,
2.8359375000,45,-61.0000000000,,,
2.8378906250,45,-19.0000000000,,,
2.8398437500,45,-13.0000000000,,,
2.8417968750,45,-27.0000000000,,,
2.8437500000,45,-14.0000000000,,,
2.8457031250,45,-2.0000000000,,,
2.8476562500,45,-7.0000000000,,,
2.8496093750,45,-27.0000000000,,,
2.8515625000,45,-12.0000000000,,,
2.8535156250,45,65.0000000000,,,
2.8554687500,45,89.0000000000,,,
2.8574218750,45,48.0000000000,,,
2.8593750000,45,59.0000000000,,,
2.8613281250,45,125.0000000000,,,
2.8632812500,45,130.0000000000,,,
2.8652343750,45,74.0000000000,,,
2.8671875000,45,8.0000000000,,,
2.8691406250,45,3.0000000000,,,
2.8710937500,45,23.0000000000,,,
2.8730468750,45,37.0000000000,,,
2.8750000000,46,72.0000000000,,,
2.8769531250,46,58.0000000000,,,
2.8789062500,46,11.0000000000,,,
2.8808593750,46,23.0000000000,,,
2.8828125000,46,59.0000000000,,,
2.8847656250,46,86.0000000000,,,
2.8867187500,46,84.0000000000,,,
2.8886718750,46,60.0000000000,,,
2.8906250000,46,40.0000000000,,,
2.8925781250,46,39.0000000000,,,
2.8945312500,46,39.0000000000,,,
2.8964843750,46,-10.0000000000,,,
2.8984375000,46,-71.0000000000,,,
2.9003906250,46,-74.0000000000,,,
2.9023437500,46,-49.0000000000,,,
2.9042968750,46,-56.0000000000,,,
2.9062500000,46,-78.0000000000,,,
2.9082031250,46,-67.0000000000,,,
2.9101562500,46,-28.0000000000,,,
2.9121093750,46,42.0000000000,,,
2.9140625000,46,119.0000000000,,,
2.9160156250,46,136.0000000000,,,
2.9179687500,46,103.0000000000,,,
2.9199218750,46,77.0000000000,,,
2.9218750000,46,26.0000000000,,,
2.9238281250,46,-27.0000000000,,,
2.9257812500,46,-57.0000000000,,,
2.9277343750,46,-57.0000000000,,,
2.9296875000,46,-11.0000000000,,,
2.9316406250,46,41.0000000000,,,
2.9335937500,46,41.0000000000,,,
2.9355468750,46,24.0000000000,,,
2.9375000000,47,56.0000000000,,,
2.9394531250,47,104.0000000000,,,
2.9414062500,47,136.0000000000,,,
2.9433593750,47,153.0000000000,,,
2.9453125000,47,100.0000000000,,,
2.9472656250,47,33.0000000000,,,
2.9492187500,47,16.0000000000,,,
2.9511718750,47,17.0000000000,,,
2.9531250000,47,49.0000000000,,,
2.9550781250,47,99.0000000000,,,
2.9570312500,47,71.0000000000,,,
2.9589843750,47,3.0000000000,,,
2.9609375000,47,-3.0000000000,,,
2.9628906250,47,32.0000000000,,,
2.9648437500,47,57.0000000000,,,
2.9667968750,47,68.0000000000,,,
2.9687500000,47,88.0000000000,,,
2.9707031250,47,76.0000000000,,,
2.9726562500,47,58.0000000000,,,
2.9746093750,47,48.0000000000,,,
2.9765625000,47,48.0000000000,,,
2.9785156250,47,72.0000000000,,,
2.9804687500,47,51.0000000000,,,
2.9824218750,47,-12.0000000000,,,
2.9843750000,47,-60.0000000000,,,
2.9863281250,47,-66.0000000000,,,
2.9882812500,47,-55.0000000000,,,
2.9902343750,47,-60.0000000000,,,
2.9921875000,47,-82.0000000000,,,
2.9941406250,47,-89.0000000000,,,
2.9960937500,47,-54.0000000000,,,
2.9980468750,47,34.0000000000,,,
3.0000000000,48,101.0000000000,,,
3.0019531250,48,48.0000000000,,,
3.0039062500,48,-10.0000000000,,,
3.0058593750,48,-8.0000000000,,,
3.0078125000,48,18.0000000000,,,
3.0097656250,48,32.0000000000,,,
3.0117187500,48,34.0000000000,,,
3.0136718750,48,49.0000000000,,,
3.0156250000,48,48.0000000000,,,
3.0175781250,48,19.0000000000,,,
3.0195312500,48,-7.0000000000,,,
3.0214843750,48,24.0000000000,,,
3.0234375000,48,84.0000000000,,,
3.0253906250,48,77.0000000000,,,
3.0273437500,48,81.0000000000,,,
3.0292968750,48,75.0000000000,,,
3.0312500000,48,32.0000000000,,,
3.0332031250,48,56.0000000000,,,
3.0351562500,48,116.0000000000,,,
3.0371093750,48,83.0000000000,,,
3.0390625000,48,10.0000000000,,,
3.0410156250,48,-37.0000000000,,,
3.0429687500,48,-28.0000000000,,,
3.0449218750,48,6.0000000000,,,
3.0468750000,48,35.0000000000,,,
3.0488281250,48,39.0000000000,,,
3.0507812500,48,20.0000000000,,,
3.0527343750,48,24.0000000000,,,
3.0546875000,48,82.0000000000,,,
3.0566406250,48,120.0000000000,,,
3.0585937500,48,77.0000000000,,,
3.0605468750,48,61.0000000000,,,
3.0625000000,49,88.0000000000,,,
3.0644531250,49,48.0000000000,,,
3.0664062500,49,4.0000000000,,,
3.0683593750,49,18.0000000000,,,
3.0703125000,49,40.0000000000,,,
3.0722656250,49,27.0000000000,,,
3.0742187500,49,25.0000000000,,,
3.0761718750,49,82.0000000000,,,
3.0781250000,49,91.0000000000,,,
3.0800781250,49,25.0000000000,,,
3.0820312500,49,-4.0000000000,,,
3.0839843750,49,13.0000000000,,,
3.0859375000,49,37.0000000000,,,
3.0878906250,49,38.0000000000,,,
3.0898437500,49,28.0000000000,,,
3.0917968750,49,12.0000000000,,,
3.0937500000,49,13.0000000000,,,
3.0957031250,49,17.0000000000,,,
3.0976562500,49,16.0000000000,,,
3.0996093750,49,56.0000000000,,,
3.1015625000,49,77.0000000000,,,
3.1035156250,49,60.0000000000,,,
3.1054687500,49,52.0000000000,,,
3.1074218750,49,36.0000000000,,,
3.1093750000,49,-13.0000000000,,,
3.1113281250,49,-25.0000000000,,,
3.1132812500,49,-1.0000000000,,,
3.1152343750,49,-1.0000000000,,,
3.1171875000,49,-5.0000000000,,,
3.1191406250,49,27.0000000000,,,
3.1210937500,49,81.0000000000,,,
3.1230468750,49,123.0000000000,,,
3.1250000000,50,154.0000000000,,,
3.1269531250,50,136.0000000000,,,
3.1289062500,50,123.0000000000,,,
3.1308593750,50,120.0000000000,,,
3.1328125000,50,124.0000000000,,,
3.1347656250,50,179.0000000000,,,
3.1367187500,50,165.0000000000,,,
3.1386718750,50,75.0000000000,,,
3.1406250000,50,38.0000000000,,,
3.1425781250,50,70.0000000000,,,
3.1445312500,50,134.0000000000,,,
3.1464843750,50,125.0000000000,,,
3.1484375000,50,59.0000000000,,,
3.1503906250,50,25.0000000000,,,
3.1523437500,50,16.0000000000,,,
3.1542968750,50,12.0000000000,,,
3.1562500000,50,43.0000000000,,,
3.1582031250,50,65.0000000000,,,
3.1601562500,50,43.0000000000,,,
3.1621093750,50,16.0000000000,,,
3.1640625000,50,-18.0000000000,,,
3.1660156250,50,-24.0000000000,,,
3.1679687500,50,-13.0000000000,,,
3.1699218750,50,10.0000000000,,,
3.1718750000,50,57.0000000000,,,
3.1738281250,50,70.0000000000,,,
3.1757812500,50,83.0000000000,,,
3.1777343750,50,115.0000000000,,,
3.1796875000,50,171.0000000000,,,
3.1816406250,50,202.0000000000,,,
3.1835937500,50,180.0000000000,,,
3.1855468750,50,87.0000000000,,,
3.1875000000,51,-13.0000000000,,,
3.1894531250,51,-43.0000000000,,,
3.1914062500,51,0.0000000000,,,
3.1933593750,51,57.0000000000,,,
3.1953125000,51,33.0000000000,,,
3.1972656250,51,-40.0000000000,,,
3.1992187500,51,-28.0000000000,,,
3.2011718750,51,58.0000000000,,,
3.2031250000,51,102.0000000000,,,
3.2050781250,51,76.0000000000,,,
3.2070312500,51,21.0000000000,,,
3.2089843750,51,-4.0000000000,,,
3.2109375000,51,17.0000000000,,,
3.2128906250,51,58.0000000000,,,
3.2148437500,51,104.0000000000,,,
3.2167968750,51,134.0000000000,,,
3.2187500000,51,120.0000000000,,,
3.2207031250,51,87.0000000000,,,
3.2226562500,51,60.0000000000,,,
3.2246093750,51,37.0000000000,,,
3.2265625000,51,13.0000000000,,,
3.2285156250,51,19.0000000000,,,
3.2304687500,51,-1.0000000000,,,
3.2324218750,51,-9.0000000000,,,
3.2343750000,51,7.0000000000,,,
3.2363281250,51,12.0000000000,,,
3.2382812500,51,19.0000000000,,,
3.2402343750,51,20.0000000000,,,
3.2421875000,51,56.0000000000,,,
3.2441406250,51,107.0000000000,,,
3.2460937500,51,136.0000000000,,,
3.2480468750,51,108.0000000000,,,
3.2500000000,52,68.0000000000,,,
3.2519531250,52,81.0000000000,,,
3.2539062500,52,137.0000000000,,,
3.2558593750,52,155.0000000000,,,
3.2578125000,52,105.0000000000,,,
3.2597656250,52,107.0000000000,,,
3.2617187500,52,90.0000000000,,,
3.2636718750,52,26.0000000000,,,
3.2656250000,52,-8.0000000000,,,
3.2675781250,52,19.0000000000,,,
3.2695312500,52,60.0000000000,,,
3.2714843750,52,73.0000000000,,,
3.2734375000,52,57.0000000000,,,
3.2753906250,52,53.0000000000,,,
3.2773437500,52,67.0000000000,,,
3.2792968750,52,51.0000000000,,,
3.2812500000,52,33.0000000000,,,
3.2832031250,52,67.0000000000,,,
3.2851562500,52,106.0000000000,,,
3.2871093750,52,92.0000000000,,,
3.2890625000,52,26.0000000000,,,
3.2910156250,52,-9.0000000000,,,
3.2929687500,52,-3.0000000000,,,
3.2949218750,52,19.0000000000,,,
3.2968750000,52,13.0000000000,,,
3.2988281250,52,-17.0000000000,,,
3.3007812500,52,-21.0000000000,,,
3.3027343750,52,37.0000000000,,,
3.3046875000,52,77.0000000000,,,
3.3066406250,52,65.0000000000,,,
3.3085937500,52,40.0000000000,,,
3.3105468750,52,43.0000000000,,,
3.3125000000,53,122.0000000000,,,
3.3144531250,53,261.0000000000,,,
3.3164062500,53,284.0000000000,,,
3.3183593750,53,178.0000000000,,,
3.3203125000,53,91.0000000000,,,
3.3222656250,53,124.0000000000,,,
3.3242187500,53,228.0000000000,,,
3.3261718750,53,299.0000000000,,,
3.3281250000,53,250.0000000000,,,
3.3300781250,53,186.0000000000,,,
3.3320312500,53,205.0000000000,,,
3.3339843750,53,220.0000000000,,,
3.3359375000,53,211.0000000000,,,
3.3378906250,53,290.0000000000,,,
3.3398437500,53,423.0000000000,,,
3.3417968750,53,486.0000000000,,,
3.3437500000,53,451.0000000000,,,
3.3457031250,53,403.0000000000,,,
3.3476562500,53,385.0000000000,,,
3.3496093750,53,375.0000000000,,,
3.3515625000,53,355.0000000000,,,
3.3535156250,53,327.0000000000,,,
3.3554687500,53,279.0000000000,,,
3.3574218750,53,293.0000000000,,,
3.3593750000,53,332.0000000000,,,
3.3613281250,53,339.0000000000,,,
3.3632812500,53,330.0000000000,,,
3.3652343750,53,332.0000000000,,,
3.3671875000,53,357.0000000000,,,
3.3691406250,53,340.0000000000,,,
3.3710937500,53,243.0000000000,,,
3.3730468750,53,151.0000000000,,,
3.3750000000,54,113.0000000000,,,
3.3769531250,54,64.0000000000,,,
3.3789062500,54,-20.0000000000,,,
3.3808593750,54,-70.0000000000,,,
3.3828125000,54,-46.0000000000,,,
3.3847656250,54,-11.0000000000,,,
3.3867187500,54,-1.0000000000,,,
3.3886718750,54,1.0000000000,,,
3.3906250000,54,-54.0000000000,,,
3.3925781250,54,-120.0000000000,,,
3.3945312500,54,-172.0000000000,,,
3.3964843750,54,-193.0000000000,,,
3.3984375000,54,-139.0000000000,,,
3.4003906250,54,-72.0000000000,,,
3.4023437500,54,-62.0000000000,,,
3.4042968750,54,-75.0000000000,,,
3.4062500000,54,-81.0000000000,,,
3.4082031250,54,-61.0000000000,,,
3.4101562500,54,-57.0000000000,,,
3.4121093750,54,-73.0000000000,,,
3.4140625000,54,-50.0000000000,,,
3.4160156250,54,13.0000000000,,,
3.4179687500,54,42.0000000000,,,
3.4199218750,54,25.0000000000,,,
3.4218750000,54,-2.0000000000,,,
3.4238281250,54,-22.0000000000,,,
3.4257812500,54,-23.0000000000,,,
3.4277343750,54,-33.0000000000,,,
3.4296875000,54,-11.0000000000,,,
3.4316406250,54,-44.0000000000,,,
3.4335937500,54,-125.0000000000,,,
3.4355468750,54,-166.0000000000,,,
3.4375000000,55,-164.0000000000,,,
3.4394531250,55,-121.0000000000,,,
3.4414062500,55,-40.0000000000,,,
3.4433593750,55,4.0000000000,,,
3.4453125000,55,1.0000000000,,,
3.4472656250,55,-13.0000000000,,,
3.4492187500,55,-69.0000000000,,,
3.4511718750,55,-151.0000000000,,,
3.4531250000,55,-188.0000000000,,,
3.4550781250,55,-165.0000000000,,,
3.4570312500,55,-168.0000000000,,,
3.4589843750,55,-170.0000000000,,,
3.4609375000,55,-152.0000000000,,,
3.4628906250,55,-154.0000000000,,,
3.4648437500,55,-162.0000000000,,,
3.4667968750,55,-139.0000000000,,,
3.4687500000,55,-115.0000000000,,,
3.4707031250,55,-140.0000000000,,,
3.4726562500,55,-202.0000000000,,,
3.4746093750,55,-195.0000000000,,,
3.4765625000,55,-141.0000000000,,,
3.4785156250,55,-164.0000000000,,,
3.4804687500,55,-180.0000000000,,,
3.4824218750,55,-130.0000000000,,,
3.4843750000,55,-42.0000000000,,,
3.4863281250,55,2.0000000000,,,
3.4882812500,55,-24.0000000000,,,
3.4902343750,55,-60.0000000000,,,
3.4921875000,55,-68.0000000000,,,
3.4941406250,55,-43.0000000000,,,
3.4960937500,55,-8.0000000000,,,
3.4980468750,55,24.0000000000,,,
3.5000000000,56,25.0000000000,,,
3.5019531250,56,-39.0000000000,,,
3.5039062500,56,-89.0000000000,,,
3.5058593750,56,-59.0000000000,,,
3.5078125000,56,21.0000000000,,,
3.5097656250,56,48.0000000000,,,
3.5117187500,56,29.0000000000,,,
3.5136718750,56,21.0000000000,,,
3.5156250000,56,21.0000000000,,,
3.5175781250,56,13.0000000000,,,
3.5195312500,56,22.0000000000,,,
3.5214843750,56,37.0000000000,,,
3.5234375000,56,24.0000000000,,,
3.5253906250,56,-5.0000000000,,,
3.5273437500,56,11.0000000000,,,
3.5292968750,56,43.0000000000,,,
3.5312500000,56,44.0000000000,,,
3.5332031250,56,22.0000000000,,,
3.5351562500,56,32.0000000000,,,
3.5371093750,56,99.0000000000,,,
3.5390625000,56,137.0000000000,,,
3.5410156250,56,105.0000000000,,,
3.5429687500,56,22.0000000000,,,
3.5449218750,56,-13.0000000000,,,
3.5468750000,56,-5.0000000000,,,
3.5488281250,56,20.0000000000,,,
3.5507812500,56,70.0000000000,,,
3.5527343750,56,57.0000000000,,,
3.5546875000,56,9.0000000000,,,
3.5566406250,56,43.0000000000,,,
3.5585937500,56,108.0000000000,,,
3.5605468750,56,135.0000000000,,,
3.5625000000,57,92.0000000000,,,
3.5644531250,57,36.0000000000,,,
3.5664062500,57,28.0000000000,,,
3.5683593750,57,43.0000000000,,,
3.5703125000,57,33.0000000000,,,
3.5722656250,57,-3.0000000000,,,
3.5742187500,57,-43.0000000000,,,
3.5761718750,57,-38.0000000000,,,
3.5781250000,57,-13.0000000000,,,
3.5800781250,57,0.0000000000,,,
3.5820312500,57,9.0000000000,,,
3.5839843750,57,23.0000000000,,,
3.5859375000,57,60.0000000000,,,
3.5878906250,57,86.0000000000,,,
3.5898437500,57,88.0000000000,,,
3.5917968750,57,92.0000000000,,,
3.5937500000,57,105.0000000000,,,
3.5957031250,57,80.0000000000,,,
3.5976562500,57,59.0000000000,,,
3.5996093750,57,77.0000000000,,,
3.6015625000,57,71.0000000000,,,
3.6035156250,57,43.0000000000,,,
3.6054687500,57,24.0000000000,,,
3.6074218750,57,51.0000000000,,,
3.6093750000,57,138.0000000000,,,
3.6113281250,57,164.0000000000,,,
3.6132812500,57,99.0000000000,,,
3.6152343750,57,68.0000000000,,,
3.6171875000,57,81.0000000000,,,
3.6191406250,57,53.0000000000,,,
3.6210937500,57,-8.0000000000,,,
3.6230468750,57,-40.0000000000,,,
3.6250000000,58,-28.0000000000,,,
3.6269531250,58,21.0000000000,,,
3.6289062500,58,80.0000000000,,,
3.6308593750,58,54.0000000000,,,
3.6328125000,58,-24.0000000000,,,
3.6347656250,58,-22.0000000000,,,
3.6367187500,58,53.0000000000,,,
3.6386718750,58,135.0000000000,,,
3.6406250000,58,121.0000000000,,,
3.6425781250,58,41.0000000000,,,
3.6445312500,58,1.0000000000,,,
3.6464843750,58,39.0000000000,,,
3.6484375000,58,70.0000000000,,,
3.6503906250,58,55.0000000000,,,
3.6523437500,58,49.0000000000,,,
3.6542968750,58,56.0000000000,,,
3.6562500000,58,49.0000000000,,,
3.6582031250,58,20.0000000000,,,
3.6601562500,58,-11.0000000000,,,
3.6621093750,58,-13.0000000000,,,
3.6640625000,58,17.0000000000,,,
3.6660156250,58,45.0000000000,,,
3.6679687500,58,98.0000000000,,,
3.6699218750,58,125.0000000000,,,
3.6718750000,58,115.0000000000,,,
3.6738281250,58,85.0000000000,,,
3.6757812500,58,50.0000000000,,,
3.6777343750,58,38.0000000000,,,
3.6796875000,58,41.0000000000,,,
3.6816406250,58,38.0000000000,,,
3.6835937500,58,-8.0000000000,,,
3.6855468750,58,-55.0000000000,,,
3.6875000000,59,-27.0000000000,,,
3.6894531250,59,44.0000000000,,,
3.6914062500,59,112.0000000000,,,
3.6933593750,59,121.0000000000,,,
3.6953125000,59,42.0000000000,,,
3.6972656250,59,-33.0000000000,,,
3.6992187500,59,-1.0000000000,,,
3.7011718750,59,57.0000000000,,,
3.7031250000,59,44.0000000000,,,
3.7050781250,59,1.0000000000,,,
3.7070312500,59,-29.0000000000,,,
3.7089843750,59,-26.0000000000,,,
3.7109375000,59,-25.0000000000,,,
3.7128906250,59,-26.0000000000,,,
3.7148437500,59,16.0000000000,,,
3.7167968750,59,58.0000000000,,,
3.7187500000,59,7.0000000000,,,
3.7207031250,59,-45.0000000000,,,
3.7226562500,59,-6.0000000000,,,
3.7246093750,59,37.0000000000,,,
3.7265625000,59,27.0000000000,,,
3.7285156250,59,29.0000000000,,,
3.7304687500,59,50.0000000000,,,
3.7324218750,59,40.0000000000,,,
3.7343750000,59,28.0000000000,,,
3.7363281250,59,54.0000000000,,,
3.7382812500,59,81.0000000000,,,
3.7402343750,59,82.0000000000,,,
3.7421875000,59,75.0000000000,,,
3.7441406250,59,80.0000000000,,,
3.7460937500,59,89.0000000000,,,
3.7480468750,59,69.0000000000,,,
3.7500000000,60,17.0000000000,,,
3.7519531250,60,-19.0000000000,,,
3.7539062500,60,-36.0000000000,,,
3.7558593750,60,-44.0000000000,,,
3.7578125000,60,-27.0000000000,,,
3.7597656250,60,11.0000000000,,,
3.7617187500,60,35.0000000000,,,
3.7636718750,60,33.0000000000,,,
3.7656250000,60,27.0000000000,,,
3.7675781250,60,57.0000000000,,,
3.7695312500,60,87.0000000000,,,
3.7714843750,60,84.0000000000,,,
3.7734375000,60,60.0000000000,,,
3.7753906250,60,60.0000000000,,,
3.7773437500,60,86.0000000000,,,
3.7792968750,60,123.0000000000,,,
3.7812500000,60,115.0000000000,,,
3.7832031250,60,40.0000000000,,,
3.7851562500,60,22.0000000000,,,
3.7871093750,60,72.0000000000,,,
3.7890625000,60,99.0000000000,,,
3.7910156250,60,73.0000000000,,,
3.7929687500,60,12.0000000000,,,
3.7949218750,60,19.0000000000,,,
3.7968750000,60,65.0000000000,,,
3.7988281250,60,64.0000000000,,,
3.8007812500,60,68.0000000000,,,
3.8027343750,60,96.0000000000,,,
3.8046875000,60,122.0000000000,,,
3.8066406250,60,122.0000000000,,,
3.8085937500,60,107.0000000000,,,
3.8105468750,60,112.0000000000,,,
3.8125000000,61,124.0000000000,,,
3.8144531250,61,84.0000000000,,,
3.8164062500,61,22.0000000000,,,
3.8183593750,61,2.0000000000,,,
3.8203125000,61,28.0000000000,,,
3.8222656250,61,81.0000000000,,,
3.8242187500,61,72.0000000000,,,
3.8261718750,61,10.0000000000,,,
3.8281250000,61,-21.0000000000,,,
3.8300781250,61,-5.0000000000,,,
3.8320312500,61,26.0000000000,,,
3.8339843750,61,43.0000000000,,,
3.8359375000,61,20.0000000000,,,
3.8378906250,61,-3.0000000000,,,
3.8398437500,61,5.0000000000,,,
3.8417968750,61,20.0000000000,,,
3.8437500000,61,35.0000000000,,,
3.8457031250,61,55.0000000000,,,
3.8476562500,61,55.0000000000,,,
3.8496093750,61,23.0000000000,,,
3.8515625000,61,45.0000000000,,,
3.8535156250,61,86.0000000000,,,
3.8554687500,61,58.0000000000,,,
3.8574218750,61,34.0000000000,,,
3.8593750000,61,61.0000000000,,,
3.8613281250,61,68.0000000000,,,
3.8632812500,61,48.0000000000,,,
3.8652343750,61,53.0000000000,,,
3.8671875000,61,59.0000000000,,,
3.8691406250,61,45.0000000000,,,
3.8710937500,61,21.0000000000,,,
3.8730468750,61,1.0000000000,,,
3.8750000000,62,0.0000000000,,,
3.8769531250,62,-23.0000000000,,,
3.8789062500,62,-69.0000000000,,,
3.8808593750,62,-76.0000000000,,,
3.8828125000,62,-24.0000000000,,,
3.8847656250,62,22.0000000000,,,
3.8867187500,62,-10.0000000000,,,
3.8886718750,62,-40.0000000000,,,
3.8906250000,62,9.0000000000,,,
3.8925781250,62,26.0000000000,,,
3.8945312500,62,-8.0000000000,,,
3.8964843750,62,-29.0000000000,,,
3.8984375000,62,-9.0000000000,,,
3.9003906250,62,40.0000000000,,,
3.9023437500,62,41.0000000000,,,
3.9042968750,62,7.0000000000,,,
3.9062500000,62,-3.0000000000,,,
3.9082031250,62,10.0000000000,,,
3.9101562500,62,10.0000000000,,,
3.9121093750,62,-13.0000000000,,,
3.9140625000,62,-5.0000000000,,,
3.9160156250,62,23.0000000000,,,
3.9179687500,62,39.0000000000,,,
3.9199218750,62,52.0000000000,,,
3.9218750000,62,57.0000000000,,,
3.9238281250,62,71.0000000000,,,
3.9257812500,62,58.0000000000,,,
3.9277343750,62,59.0000000000,,,
3.9296875000,62,75.0000000000,,,
3.9316406250,62,67.0000000000,,,
3.9335937500,62,26.0000000000,,,
3.9355468750,62,-6.0000000000,,,
3.9375000000,63,19.0000000000,,,
3.9394531250,63,75.0000000000,,,
3.9414062500,63,133.0000000000,,,
3.9433593750,63,120.0000000000,,,
3.9453125000,63,96.0000000000,,,
3.9472656250,63,84.0000000000,,,
3.9492187500,63,80.0000000000,,,
3.9511718750,63,91.0000000000,,,
3.9531250000,63,121.0000000000,,,
3.9550781250,63,113.0000000000,,,
3.9570312500,63,44.0000000000,,,
3.9589843750,63,10.0000000000,,,
3.9609375000,63,34.0000000000,,,
3.9628906250,63,112.0000000000,,,
3.9648437500,63,166.0000000000,,,
3.9667968750,63,154.0000000000,,,
3.9687500000,63,112.0000000000,,,
3.9707031250,63,131.0000000000,,,
3.9726562500,63,194.0000000000,,,
3.9746093750,63,244.0000000000,,,
3.9765625000,63,250.0000000000,,,
3.9785156250,63,196.0000000000,,,
3.9804687500,63,97.0000000000,,,
3.9824218750,63,71.0000000000,,,
3.9843750000,63,130.0000000000,,,
3.9863281250,63,153.0000000000,,,
3.9882812500,63,116.0000000000,,,
3.9902343750,63,84.0000000000,,,
3.9921875000,63,106.0000000000,,,
3.9941406250,63,164.0000000000,,,
3.9960937500,63,203.0000000000,,,
3.9980468750,63,167.0000000000,,,
4.0000000000,64,105.0000000000,,,
4.0019531250,64,90.0000000000,,,
4.0039062500,64,103.0000000000,,,
4.0058593750,64,86.0000000000,,,
4.0078125000,64,28.0000000000,,,
4.0097656250,64,-17.0000000000,,,
4.0117187500,64,-23.0000000000,,,
4.0136718750,64,-27.0000000000,,,
4.0156250000,64,-25.0000000000,,,
4.0175781250,64,-55.0000000000,,,
4.0195312500,64,-68.0000000000,,,
4.0214843750,64,1.0000000000,,,
4.0234375000,64,51.0000000000,,,
4.0253906250,64,89.0000000000,,,
4.0273437500,64,135.0000000000,,,
4.0292968750,64,144.0000000000,,,
4.0312500000,64,147.0000000000,,,
4.0332031250,64,179.0000000000,,,
4.0351562500,64,165.0000000000,,,
4.0371093750,64,72.0000000000,,,
4.0390625000,64,8.0000000000,,,
4.0410156250,64,28.0000000000,,,
4.0429687500,64,40.0000000000,,,
4.0449218750,64,-22.0000000000,,,
4.0468750000,64,-116.0000000000,,,
4.0488281250,64,-60.0000000000,,,
4.0507812500,64,106.0000000000,,,
4.0527343750,64,215.0000000000,,,
4.0546875000,64,180.0000000000,,,
4.0566406250,64,81.0000000000,,,
4.0585937500,64,50.0000000000,,,
4.0605468750,64,57.0000000000,,,
4.0625000000,65,18.0000000000,,,
4.0644531250,65,-65.0000000000,,,
4.0664062500,65,-137.0000000000,,,
4.0683593750,65,-206.0000000000,,,
4.0703125000,65,-187.0000000000,,,
4.0722656250,65,-84.0000000000,,,
4.0742187500,65,-52.0000000000,,,
4.0761718750,65,-121.0000000000,,,
4.0781250000,65,-158.0000000000,,,
4.0800781250,65,-38.0000000000,,,
4.0820312500,65,37.0000000000,,,
4.0839843750,65,-9.0000000000,,,
4.0859375000,65,6.0000000000,,,
4.0878906250,65,135.0000000000,,,
4.0898437500,65,135.0000000000,,,
4.0917968750,65,-42.0000000000,,,
4.0937500000,65,-169.0000000000,,,
4.0957031250,65,-107.0000000000,,,
4.0976562500,65,-23.0000000000,,,
4.0996093750,65,-61.0000000000,,,
4.1015625000,65,-237.0000000000,,,
4.1035156250,65,-340.0000000000,,,
4.1054687500,65,-318.0000000000,,,
4.1074218750,65,-201.0000000000,,,
4.1093750000,65,-69.0000000000,,,
4.1113281250,65,8.0000000000,,,
4.1132812500,65,-3.0000000000,,,
4.1152343750,65,-88.0000000000,,,
4.1171875000,65,-102.0000000000,,,
4.1191406250,65,-114.0000000000,,,
4.1210937500,65,-165.0000000000,,,
4.1230468750,65,-149.0000000000,,,
4.1250000000,66,-85.0000000000,,,
4.1269531250,66,-60.0000000000,,,
4.1289062500,66,-139.0000000000,,,
4.1308593750,66,-162.0000000000,,,
4.1328125000,66,11.0000000000,,,
4.1347656250,66,154.0000000000,,,
4.1367187500,66,99.0000000000,,,
4.1386718750,66,-22.0000000000,,,
4.1406250000,66,-14.0000000000,,,
4.1425781250,66,60.0000000000,,,
4.1445312500,66,106.0000000000,,,
4.1464843750,66,85.0000000000,,,
4.1484375000,66,44.0000000000,,,
4.1503906250,66,71.0000000000,,,
4.1523437500,66,86.0000000000,,,
4.1542968750,66,113.0000000000,,,
4.1562500000,66,118.0000000000,,,
4.1582031250,66,128.0000000000,,,
4.1601562500,66,118.0000000000,,,
4.1621093750,66,74.0000000000,,,
4.1640625000,66,27.0000000000,,,
4.1660156250,66,69.0000000000,,,
4.1679687500,66,170.0000000000,,,
4.1699218750,66,219.0000000000,,,
4.1718750000,66,123.0000000000,,,
4.1738281250,66,40.0000000000,,,
4.1757812500,66,135.0000000000,,,
4.1777343750,66,236.0000000000,,,
4.1796875000,66,132.0000000000,,,
4.1816406250,66,-23.0000000000,,,
4.1835937500,66,-74.0000000000,,,
4.1855468750,66,-7.0000000000,,,
4.1875000000,67,82.0000000000,,,
4.1894531250,67,178.0000000000,,,
4.1914062500,67,272.0000000000,,,
4.1933593750,67,305.0000000000,,,
4.1953125000,67,306.0000000000,,,
4.1972656250,67,341.0000000000,,,
4.1992187500,67,389.0000000000,,,
4.2011718750,67,307.0000000000,,,
4.2031250000,67,130.0000000000,,,
4.2050781250,67,-8.0000000000,,,
4.2070312500,67,-72.0000000000,,,
4.2089843750,67,-10.0000000000,,,
4.2109375000,67,162.0000000000,,,
4.2128906250,67,197.0000000000,,,
4.2148437500,67,55.0000000000,,,
4.2167968750,67,6.0000000000,,,
4.2187500000,67,129.0000000000,,,
4.2207031250,67,212.0000000000,,,
4.2226562500,67,182.0000000000,,,
4.2246093750,67,93.0000000000,,,
4.2265625000,67,70.0000000000,,,
4.2285156250,67,122.0000000000,,,
4.2304687500,67,144.0000000000,,,
4.2324218750,67,101.0000000000,,,
4.2343750000,67,77.0000000000,,,
4.2363281250,67,55.0000000000,,,
4.2382812500,67,72.0000000000,,,
4.2402343750,67,155.0000000000,,,
4.2421875000,67,181.0000000000,,,
4.2441406250,67,105.0000000000,,,
4.2460937500,67,68.0000000000,,,
4.2480468750,67,119.0000000000,,,
4.2500000000,68,203.0000000000,,,
4.2519531250,68,225.0000000000,,,
4.2539062500,68,166.0000000000,,,
4.2558593750,68,51.0000000000,,,
4.2578125000,68,27.0000000000,,,
4.2597656250,68,51.0000000000,,,
4.2617187500,68,8.0000000000,,,
4.2636718750,68,-45.0000000000,,,
4.2656250000,68,-2.0000000000,,,
4.2675781250,68,75.0000000000,,,
4.2695312500,68,58.0000000000,,,
4.2714843750,68,40.0000000000,,,
4.2734375000,68,112.0000000000,,,
4.2753906250,68,185.0000000000,,,
4.2773437500,68,148.0000000000,,,
4.2792968750,68,40.0000000000,,,
4.2812500000,68,32.0000000000,,,
4.2832031250,68,76.0000000000,,,
4.2851562500,68,102.0000000000,,,
4.2871093750,68,132.0000000000,,,
4.2890625000,68,134.0000000000,,,
4.2910156250,68,74.0000000000,,,
4.2929687500,68,35.0000000000,,,
4.2949218750,68,52.0000000000,,,
4.2968750000,68,88.0000000000,,,
4.2988281250,68,115.0000000000,,,
4.3007812500,68,100.0000000000,,,
4.3027343750,68,71.0000000000,,,
4.3046875000,68,91.0000000000,,,
4.3066406250,68,97.0000000000,,,
4.3085937500,68,122.0000000000,,,
4.3105468750,68,113.0000000000,,,
4.3125000000,69,-91.0000000000,,,
4.3144531250,69,-229.0000000000,,,
4.3164062500,69,-189.0000000000,,,
4.3183593750,69,-140.0000000000,,,
4.3203125000,69,-132.0000000000,,,
4.3222656250,69,-132.0000000000,,,
4.3242187500,69,-135.0000000000,,,
4.3261718750,69,-124.0000000000,,,
4.3281250000,69,-70.0000000000,,,
4.3300781250,69,23.0000000000,,,
4.3320312500,69,90.0000000000,,,
4.3339843750,69,32.0000000000,,,
4.3359375000,69,-6.0000000000,,,
4.3378906250,69,-6.0000000000,,,
4.3398437500,69,-53.0000000000,,,
4.3417968750,69,-123.0000000000,,,
4.3437500000,69,-141.0000000000,,,
4.3457031250,69,-91.0000000000,,,
4.3476562500,69,-45.0000000000,,,
4.3496093750,69,-10.0000000000,,,
4.3515625000,69,97.0000000000,,,
4.3535156250,69,165.0000000000,,,
4.3554687500,69,26.0000000000,,,
4.3574218750,69,-138.0000000000,,,
4.3593750000,69,-103.0000000000,,,
4.3613281250,69,39.0000000000,,,
4.3632812500,69,86.0000000000,,,
4.3652343750,69,5.0000000000,,,
4.3671875000,69,-81.0000000000,,,
4.3691406250,69,-125.0000000000,,,
4.3710937500,69,-99.0000000000,,,
4.3730468750,69,-56.0000000000,,,
4.3750000000,70,-37.0000000000,,,
4.3769531250,70,-7.0000000000,,,
4.3789062500,70,16.0000000000,,,
4.3808593750,70,-14.0000000000,,,
4.3828125000,70,-56.0000000000,,,
4.3847656250,70,-53.0000000000,,,
4.3867187500,70,-28.0000000000,,,
4.3886718750,70,26.0000000000,,,
4.3906250000,70,43.0000000000,,,
4.3925781250,70,33.0000000000,,,
4.3945312500,70,27.0000000000,,,
4.3964843750,70,16.0000000000,,,
4.3984375000,70,-22.0000000000,,,
4.4003906250,70,-40.0000000000,,,
4.4023437500,70,-53.0000000000,,,
4.4042968750,70,-19.0000000000,,,
4.4062500000,70,73.0000000000,,,
4.4082031250,70,58.0000000000,,,
4.4101562500,70,21.0000000000,,,
4.4121093750,70,42.0000000000,,,
4.4140625000,70,52.0000000000,,,
4.4160156250,70,33.0000000000,,,
4.4179687500,70,-13.0000000000,,,
4.4199218750,70,-52.0000000000,,,
4.4218750000,70,-77.0000000000,,,
4.4238281250,70,-66.0000000000,,,
4.4257812500,70,-38.0000000000,,,
4.4277343750,70,-41.0000000000,,,
4.4296875000,70,-27.0000000000,,,
4.4316406250,70,16.0000000000,,,
4.4335937500,70,54.0000000000,,,
4.4355468750,70,73.0000000000,,,
4.4375000000,71,51.0000000000,,,
4.4394531250,71,60.0000000000,,,
4.4414062500,71,92.0000000000,,,
4.4433593750,71,96.0000000000,,,
4.4453125000,71,6.0000000000,,,
4.4472656250,71,-26.0000000000,,,
4.4492187500,71,7.0000000000,,,
4.4511718750,71,1.0000000000,,,
4.4531250000,71,7.0000000000,,,
4.4550781250,71,69.0000000000,,,
4.4570312500,71,66.0000000000,,,
4.4589843750,71,-2.0000000000,,,
4.4609375000,71,-50.0000000000,,,
4.4628906250,71,-71.0000000000,,,
4.4648437500,71,-49.0000000000,,,
4.4667968750,71,27.0000000000,,,
4.4687500000,71,51.0000000000,,,
4.4707031250,71,23.0000000000,,,
4.4726562500,71,-21.0000000000,,,
4.4746093750,71,-18.0000000000,,,
4.4765625000,71,2.0000000000,,,
4.4785156250,71,6.0000000000,,,
4.4804687500,71,68.0000000000,,,
4.4824218750,71,122.0000000000,,,
4.4843750000,71,92.0000000000,,,
4.4863281250,71,60.0000000000,,,
4.4882812500,71,37.0000000000,,,
4.4902343750,71,65.0000000000,,,
4.4921875000,71,154.0000000000,,,
4.4941406250,71,228.0000000000,,,
4.4960937500,71,230.0000000000,,,
4.4980468750,71,201.0000000000,,,
4.5000000000,72,114.0000000000,,,
4.5019531250,72,37.0000000000,,,
4.5039062500,72,-45.0000000000,,,
4.5058593750,72,-72.0000000000,,,
4.5078125000,72,-17.0000000000,,,
4.5097656250,72,65.0000000000,,,
4.5117187500,72,77.0000000000,,,
4.5136718750,72,18.0000000000,,,
4.5156250000,72,-27.0000000000,,,
4.5175781250,72,81.0000000000,,,
4.5195312500,72,203.0000000000,,,
4.5214843750,72,259.0000000000,,,
4.5234375000,72,288.0000000000,,,
4.5253906250,72,246.0000000000,,,
4.5273437500,72,156.0000000000,,,
4.5292968750,72,114.0000000000,,,
4.5312500000,72,144.0000000000,,,
4.5332031250,72,230.0000000000,,,
4.5351562500,72,369.0000000000,,,
4.5371093750,72,416.0000000000,,,
4.5390625000,72,409.0000000000,,,
4.5410156250,72,282.0000000000,,,
4.5429687500,72,133.0000000000,,,
4.5449218750,72,108.0000000000,,,
4.5468750000,72,180.0000000000,,,
4.5488281250,72,209.0000000000,,,
4.5507812500,72,188.0000000000,,,
4.5527343750,72,186.0000000000,,,
4.5546875000,72,162.0000000000,,,
4.5566406250,72,157.0000000000,,,
4.5585937500,72,214.0000000000,,,
4.5605468750,72,359.0000000000,,,
4.5625000000,73,456.0000000000,,,
4.5644531250,73,315.0000000000,,,
4.5664062500,73,112.0000000000,,,
4.5683593750,73,43.0000000000,,,
4.5703125000,73,56.0000000000,,,
4.5722656250,73,25.0000000000,,,
4.5742187500,73,-77.0000000000,,,
4.5761718750,73,-123.0000000000,,,
4.5781250000,73,-77.0000000000,,,
4.5800781250,73,-12.0000000000,,,
4.5820312500,73,36.0000000000,,,
4.5839843750,73,61.0000000000,,,
4.5859375000,73,128.0000000000,,,
4.5878906250,73,203.0000000000,,,
4.5898437500,73,225.0000000000,,,
4.5917968750,73,185.0000000000,,,
4.5937500000,73,103.0000000000,,,
4.5957031250,73,160.0000000000,,,
4.5976562500,73,244.0000000000,,,
4.5996093750,73,224.0000000000,,,
4.6015625000,73,150.0000000000,,,
4.6035156250,73,195.0000000000,,,
4.6054687500,73,262.0000000000,,,
4.6074218750,73,225.0000000000,,,
4.6093750000,73,200.0000000000,,,
4.6113281250,73,235.0000000000,,,
4.6132812500,73,278.0000000000,,,
4.6152343750,73,248.0000000000,,,
4.6171875000,73,170.0000000000,,,
4.6191406250,73,60.0000000000,,,
4.6210937500,73,-72.0000000000,,,
4.6230468750,73,-104.0000000000,,,
4.6250000000,74,-70.0000000000,,,
4.6269531250,74,-46.0000000000,,,
4.6289062500,74,-38.0000000000,,,
4.6308593750,74,-74.0000000000,,,
4.6328125000,74,-61.0000000000,,,
4.6347656250,74,-30.0000000000,,,
4.6367187500,74,18.0000000000,,,
4.6386718750,74,24.0000000000,,,
4.6406250000,74,-12.0000000000,,,
4.6425781250,74,-33.0000000000,,,
4.6445312500,74,-104.0000000000,,,
4.6464843750,74,-193.0000000000,,,
4.6484375000,74,-228.0000000000,,,
4.6503906250,74,-165.0000000000,,,
4.6523437500,74,-100.0000000000,,,
4.6542968750,74,-102.0000000000,,,
4.6562500000,74,-102.0000000000,,,
4.6582031250,74,-70.0000000000,,,
4.6601562500,74,-24.0000000000,,,
4.6621093750,74,-35.0000000000,,,
4.6640625000,74,-139.0000000000,,,
4.6660156250,74,-152.0000000000,,,
4.6679687500,74,-149.0000000000,,,
4.6699218750,74,-179.0000000000,,,
4.6718750000,74,-189.0000000000,,,
4.6738281250,74,-135.0000000000,,,
4.6757812500,74,-30.0000000000,,,
4.6777343750,74,16.0000000000,,,
4.6796875000,74,54.0000000000,,,
4.6816406250,74,7.0000000000,,,
4.6835937500,74,-148.0000000000,,,
4.6855468750,74,-194.0000000000,,,
4.6875000000,75,-151.0000000000,,,
4.6894531250,75,-113.0000000000,,,
4.6914062500,75,-94.0000000000,,,
4.6933593750,75,-70.0000000000,,,
4.6953125000,75,-76.0000000000,,,
4.6972656250,75,-76.0000000000,,,
4.6992187500,75,-11.0000000000,,,
4.7011718750,75,71.0000000000,,,
4.7031250000,75,86.0000000000,,,
4.7050781250,75,-23.0000000000,,,
4.7070312500,75,-116.0000000000,,,
4.7089843750,75,-73.0000000000,,,
4.7109375000,75,-34.0000000000,,,
4.7128906250,75,-62.0000000000,,,
4.7148437500,75,-74.0000000000,,,
4.7167968750,75,-66.0000000000,,,
4.7187500000,75,-28.0000000000,,,
4.7207031250,75,-10.0000000000,,,
4.7226562500,75,10.0000000000,,,
4.7246093750,75,11.0000000000,,,
4.7265625000,75,-3.0000000000,,,
4.7285156250,75,8.0000000000,33553,4.7285156250,0.0019531250
4.7304687500,75,8.0000000000,33554,4.7304687500,0.0000000000
4.7324218750,75,53.0000000000,,,
4.7343750000,75,24.0000000000,,,
4.7363281250,75,33.0000000000,,,
4.7382812500,75,114.0000000000,,,
4.7402343750,75,144.0000000000,,,
4.7421875000,75,92.0000000000,,,
4.7441406250,75,19.0000000000,,,
4.7460937500,75,55.0000000000,,,
4.7480468750,75,73.0000000000,,,
4.7500000000,76,16.0000000000,,,
4.7519531250,76,-41.0000000000,,,
4.7539062500,76,-82.0000000000,,,
4.7558593750,76,-92.0000000000,,,
4.7578125000,76,-87.0000000000,,,
4.7597656250,76,-70.0000000000,,,
4.7617187500,76,18.0000000000,,,
4.7636718750,76,99.0000000000,,,
4.7656250000,76,119.0000000000,,,
4.7675781250,76,136.0000000000,,,
4.7695312500,76,166.0000000000,,,
4.7714843750,76,220.0000000000,,,
4.7734375000,76,234.0000000000,,,
4.7753906250,76,118.0000000000,,,
4.7773437500,76,18.0000000000,,,
4.7792968750,76,34.0000000000,,,
4.7812500000,76,32.0000000000,,,
4.7832031250,76,8.0000000000,,,
4.7851562500,76,-8.0000000000,,,
4.7871093750,76,4.0000000000,,,
4.7890625000,76,33.0000000000,,,
4.7910156250,76,59.0000000000,,,
4.7929687500,76,139.0000000000,,,
4.7949218750,76,137.0000000000,,,
4.7968750000,76,68.0000000000,,,
4.7988281250,76,44.0000000000,,,
4.8007812500,76,119.0000000000,,,
4.8027343750,76,186.0000000000,,,
4.8046875000,76,186.0000000000,,,
4.8066406250,76,209.0000000000,,,
4.8085937500,76,231.0000000000,,,
4.8105468750,76,214.0000000000,,,
4.8125000000,77,102.0000000000,,,
4.8144531250,77,23.0000000000,,,
4.8164062500,77,44.0000000000,,,
4.8183593750,77,42.0000000000,,,
4.8203125000,77,-24.0000000000,,,
4.8222656250,77,-42.0000000000,,,
4.8242187500,77,-28.0000000000,,,
4.8261718750,77,40.0000000000,,,
4.8281250000,77,121.0000000000,,,
4.8300781250,77,128.0000000000,,,
4.8320312500,77,54.0000000000,,,
4.8339843750,77,1.0000000000,,,
4.8359375000,77,-13.0000000000,,,
4.8378906250,77,-22.0000000000,,,
4.8398437500,77,4.0000000000,,,
4.8417968750,77,24.0000000000,,,
4.8437500000,77,-9.0000000000,,,
4.8457031250,77,-26.0000000000,,,
4.8476562500,77,-6.0000000000,,,
4.8496093750,77,17.0000000000,,,
4.8515625000,77,56.0000000000,,,
4.8535156250,77,146.0000000000,,,
4.8554687500,77,121.0000000000,,,
4.8574218750,77,-13.0000000000,,,
4.8593750000,77,-72.0000000000,,,
4.8613281250,77,-59.0000000000,,,
4.8632812500,77,-57.0000000000,,,
4.8652343750,77,-35.0000000000,,,
4.8671875000,77,9.0000000000,,,
4.8691406250,77,-4.0000000000,,,
4.8710937500,77,-25.0000000000,,,
4.8730468750,77,48.0000000000,,,
4.8750000000,78,145.0000000000,,,
4.8769531250,78,176.0000000000,,,
4.8789062500,78,72.0000000000,,,
4.8808593750,78,-2.0000000000,,,
4.8828125000,78,-2.0000000000,,,
4.8847656250,78,24.0000000000,,,
4.8867187500,78,39.0000000000,,,
4.8886718750,78,-12.0000000000,,,
4.8906250000,78,-75.0000000000,,,
4.8925781250,78,-77.0000000000,,,
4.8945312500,78,3.0000000000,,,
4.8964843750,78,73.0000000000,,,
4.8984375000,78,144.0000000000,,,
4.9003906250,78,184.0000000000,,,
4.9023437500,78,214.0000000000,,,
4.9042968750,78,228.0000000000,,,
4.9062500000,78,147.0000000000,,,
4.9082031250,78,36.0000000000,,,
4.9101562500,78,-27.0000000000,,,
4.9121093750,78,4.0000000000,,,
4.9140625000,78,49.0000000000,,,
4.9160156250,78,57.0000000000,,,
4.9179687500,78,72.0000000000,,,
4.9199218750,78,75.0000000000,,,
4.9218750000,78,66.0000000000,,,
4.9238281250,78,61.0000000000,,,
4.9257812500,78,54.0000000000,,,
4.9277343750,78,24.0000000000,,,
4.9296875000,78,-17.0000000000,,,
4.9316406250,78,40.0000000000,,,
4.9335937500,78,92.0000000000,,,
4.9355468750,78,54.0000000000,,,
4.9375000000,79,-20.0000000000,,,
4.9394531250,79,-57.0000000000,,,
4.9414062500,79,-30.0000000000,,,
4.9433593750,79,13.0000000000,,,
4.9453125000,79,60.0000000000,,,
4.9472656250,79,74.0000000000,,,
4.9492187500,79,54.0000000000,,,
4.9511718750,79,16.0000000000,,,
4.9531250000,79,-11.0000000000,,,
4.9550781250,79,-9.0000000000,,,
4.9570312500,79,80.0000000000,,,
4.9589843750,79,146.0000000000,,,
4.9609375000,79,105.0000000000,,,
4.9628906250,79,34.0000000000,,,
4.9648437500,79,-3.0000000000,,,
4.9667968750,79,54.0000000000,,,
4.9687500000,79,116.0000000000,,,
4.9707031250,79,71.0000000000,,,
4.9726562500,79,-6.0000000000,,,
4.9746093750,79,10.0000000000,,,
4.9765625000,79,102.0000000000,,,
4.9785156250,79,132.0000000000,,,
4.9804687500,79,91.0000000000,,,
4.9824218750,79,71.0000000000,,,
4.9843750000,79,40.0000000000,,,
4.9863281250,79,-6.0000000000,,,
4.9882812500,79,-37.0000000000,,,
4.9902343750,79,-27.0000000000,,,
4.9921875000,79,65.0000000000,,,
4.9941406250,79,160.0000000000,,,
4.9960937500,79,177.0000000000,,,
4.9980468750,79,132.0000000000,,,
5.0000000000,80,20.0000000000,,,
5.0019531250,80,-35.0000000000,,,
5.0039062500,80,4.0000000000,,,
5.0058593750,80,37.0000000000,,,
5.0078125000,80,-13.0000000000,,,
5.0097656250,80,-82.0000000000,,,
5.0117187500,80,-82.0000000000,,,
5.0136718750,80,-77.0000000000,,,
5.0156250000,80,-90.0000000000,,,
5.0175781250,80,-97.0000000000,,,
5.0195312500,80,-33.0000000000,,,
5.0214843750,80,40.0000000000,,,
5.0234375000,80,36.0000000000,,,
5.0253906250,80,-92.0000000000,,,
5.0273437500,80,-217.0000000000,,,
5.0292968750,80,-205.0000000000,,,
5.0312500000,80,-168.0000000000,,,
5.0332031250,80,-174.0000000000,,,
5.0351562500,80,-179.0000000000,,,
5.0371093750,80,-138.0000000000,,,
5.0390625000,80,-117.0000000000,,,
5.0410156250,80,-107.0000000000,,,
5.0429687500,80,-57.0000000000,,,
5.0449218750,80,-26.0000000000,,,
5.0468750000,80,-60.0000000000,,,
5.0488281250,80,-93.0000000000,,,
5.0507812500,80,-41.0000000000,,,
5.0527343750,80,45.0000000000,,,
5.0546875000,80,74.0000000000,,,
5.0566406250,80,38.0000000000,,,
5.0585937500,80,32.0000000000,,,
5.0605468750,80,84.0000000000,,,
5.0625000000,81,168.0000000000,,,
5.0644531250,81,241.0000000000,,,
5.0664062500,81,176.0000000000,,,
5.0683593750,81,80.0000000000,,,
5.0703125000,81,74.0000000000,,,
5.0722656250,81,66.0000000000,,,
5.0742187500,81,84.0000000000,,,
5.0761718750,81,107.0000000000,,,
5.0781250000,81,48.0000000000,,,
5.0800781250,81,-41.0000000000,,,
5.0820312500,81,-36.0000000000,,,
5.0839843750,81,11.0000000000,,,
5.0859375000,81,39.0000000000,,,
5.0878906250,81,66.0000000000,,,
5.0898437500,81,80.0000000000,,,
5.0917968750,81,29.0000000000,,,
5.0937500000,81,17.0000000000,,,
5.0957031250,81,27.0000000000,,,
5.0976562500,81,6.0000000000,,,
5.0996093750,81,4.0000000000,,,
5.1015625000,81,26.0000000000,,,
5.1035156250,81,38.0000000000,,,
5.1054687500,81,21.0000000000,,,
5.1074218750,81,-26.0000000000,,,
5.1093750000,81,-25.0000000000,,,
5.1113281250,81,21.0000000000,,,
5.1132812500,81,28.0000000000,,,
5.1152343750,81,-74.0000000000,,,
5.1171875000,81,-150.0000000000,,,
5.1191406250,81,-75.0000000000,,,
5.1210937500,81,43.0000000000,,,
5.1230468750,81,34.0000000000,,,
5.1250000000,82,-50.0000000000,,,
5.1269531250,82,-60.0000000000,,,
5.1289062500,82,-13.0000000000,,,
5.1308593750,82,53.0000000000,,,
5.1328125000,82,69.0000000000,,,
5.1347656250,82,60.0000000000,,,
5.1367187500,82,21.0000000000,,,
5.1386718750,82,-43.0000000000,,,
5.1406250000,82,-57.0000000000,,,
5.1425781250,82,-21.0000000000,,,
5.1445312500,82,22.0000000000,,,
5.1464843750,82,28.0000000000,,,
5.1484375000,82,24.0000000000,,,
5.1503906250,82,64.0000000000,,,
5.1523437500,82,115.0000000000,,,
5.1542968750,82,93.0000000000,,,
5.1562500000,82,64.0000000000,,,
5.1582031250,82,76.0000000000,,,
5.1601562500,82,73.0000000000,,,
5.1621093750,82,34.0000000000,,,
5.1640625000,82,53.0000000000,,,
5.1660156250,82,39.0000000000,,,
5.1679687500,82,33.0000000000,,,
5.1699218750,82,98.0000000000,,,
5.1718750000,82,109.0000000000,,,
5.1738281250,82,89.0000000000,,,
5.1757812500,82,92.0000000000,,,
5.1777343750,82,98.0000000000,,,
5.1796875000,82,66.0000000000,,,
5.1816406250,82,-21.0000000000,,,
5.1835937500,82,-92.0000000000,,,
5.1855468750,82,-40.0000000000,,,
5.1875000000,83,-18.0000000000,,,
5.1894531250,83,-130.0000000000,,,
5.1914062500,83,-209.0000000000,,,
5.1933593750,83,-122.0000000000,,,
5.1953125000,83,36.0000000000,,,
5.1972656250,83,128.0000000000,,,
5.1992187500,83,120.0000000000,,,
5.2011718750,83,49.0000000000,,,
5.2031250000,83,4.0000000000,,,
5.2050781250,83,24.0000000000,,,
5.2070312500,83,67.0000000000,,,
5.2089843750,83,93.0000000000,,,
5.2109375000,83,75.0000000000,,,
5.2128906250,83,2.0000000000,,,
5.2148437500,83,-57.0000000000,,,
5.2167968750,83,-20.0000000000,,,
5.2187500000,83,37.0000000000,,,
5.2207031250,83,32.0000000000,,,
5.2226562500,83,-4.0000000000,,,
5.2246093750,83,6.0000000000,,,
5.2265625000,83,83.0000000000,,,
5.2285156250,83,91.0000000000,,,
5.2304687500,83,81.0000000000,,,
5.2324218750,83,56.0000000000,,,
5.2343750000,83,67.0000000000,,,
5.2363281250,83,155.0000000000,,,
5.2382812500,83,172.0000000000,,,
5.2402343750,83,102.0000000000,,,
5.2421875000,83,57.0000000000,,,
5.2441406250,83,42.0000000000,,,
5.2460937500,83,26.0000000000,,,
5.2480468750,83,8.0000000000,,,
5.2500000000,84,55.0000000000,,,
5.2519531250,84,172.0000000000,,,
5.2539062500,84,218.0000000000,,,
5.2558593750,84,157.0000000000,,,
5.2578125000,84,73.0000000000,,,
5.2597656250,84,80.0000000000,,,
5.2617187500,84,132.0000000000,,,
5.2636718750,84,118.0000000000,,,
5.2656250000,84,51.0000000000,,,
5.2675781250,84,1.0000000000,,,
5.2695312500,84,-26.0000000000,,,
5.2714843750,84,-1.0000000000,,,
5.2734375000,84,86.0000000000,,,
5.2753906250,84,253.0000000000,,,
5.2773437500,84,262.0000000000,,,
5.2792968750,84,80.0000000000,,,
5.2812500000,84,-29.0000000000,,,
5.2832031250,84,-13.0000000000,,,
5.2851562500,84,48.0000000000,,,
5.2871093750,84,40.0000000000,,,
5.2890625000,84,-24.0000000000,,,
5.2910156250,84,-28.0000000000,,,
5.2929687500,84,29.0000000000,,,
5.2949218750,84,69.0000000000,,,
5.2968750000,84,87.0000000000,,,
5.2988281250,84,125.0000000000,,,
5.3007812500,84,200.0000000000,,,
5.3027343750,84,145.0000000000,,,
5.3046875000,84,-2.0000000000,,,
5.3066406250,84,19.0000000000,,,
5.3085937500,84,96.0000000000,,,
5.3105468750,84,77.0000000000,,,
5.3125000000,85,104.0000000000,,,
5.3144531250,85,146.0000000000,,,
5.3164062500,85,80.0000000000,,,
5.3183593750,85,25.0000000000,,,
5.3203125000,85,83.0000000000,,,
5.3222656250,85,128.0000000000,,,
5.3242187500,85,132.0000000000,,,
5.3261718750,85,130.0000000000,,,
5.3281250000,85,150.0000000000,,,
5.3300781250,85,122.0000000000,,,
5.3320312500,85,139.0000000000,,,
5.3339843750,85,182.0000000000,,,
5.3359375000,85,181.0000000000,,,
5.3378906250,85,171.0000000000,,,
5.3398437500,85,140.0000000000,,,
5.3417968750,85,105.0000000000,,,
5.3437500000,85,80.0000000000,,,
5.3457031250,85,83.0000000000,,,
5.3476562500,85,136.0000000000,,,
5.3496093750,85,213.0000000000,,,
5.3515625000,85,217.0000000000,,,
5.3535156250,85,100.0000000000,,,
5.3554687500,85,9.0000000000,,,
5.3574218750,85,22.0000000000,,,
5.3593750000,85,71.0000000000,,,
5.3613281250,85,101.0000000000,,,
5.3632812500,85,84.0000000000,,,
5.3652343750,85,36.0000000000,,,
5.3671875000,85,60.0000000000,,,
5.3691406250,85,114.0000000000,,,
5.3710937500,85,164.0000000000,,,
5.3730468750,85,154.0000000000,,,
5.3750000000,86,124.0000000000,,,
5.3769531250,86,102.0000000000,,,
5.3789062500,86,24.0000000000,,,
5.3808593750,86,-26.0000000000,,,
5.3828125000,86,-28.0000000000,,,
5.3847656250,86,-67.0000000000,,,
5.3867187500,86,-126.0000000000,,,
5.3886718750,86,-167.0000000000,,,
5.3906250000,86,-164.0000000000,,,
5.3925781250,86,-107.0000000000,,,
5.3945312500,86,-29.0000000000,,,
5.3964843750,86,51.0000000000,,,
5.3984375000,86,117.0000000000,,,
5.4003906250,86,72.0000000000,,,
5.4023437500,86,35.0000000000,,,
5.4042968750,86,22.0000000000,,,
5.4062500000,86,9.0000000000,,,
5.4082031250,86,27.0000000000,,,
5.4101562500,86,27.0000000000,,,
5.4121093750,86,27.0000000000,,,
5.4140625000,86,-28.0000000000,,,
5.4160156250,86,-99.0000000000,,,
5.4179687500,86,-61.0000000000,,,
5.4199218750,86,48.0000000000,,,
5.4218750000,86,120.0000000000,,,
5.4238281250,86,80.0000000000,,,
5.4257812500,86,-6.0000000000,,,
5.4277343750,86,-56.0000000000,,,
5.4296875000,86,-57.0000000000,,,
5.4316406250,86,-46.0000000000,,,
5.4335937500,86,-4.0000000000,,,
5.4355468750,86,37.0000000000,,,
5.4375000000,87,22.0000000000,,,
5.4394531250,87,28.0000000000,,,
5.4414062500,87,144.0000000000,,,
5.4433593750,87,199.0000000000,,,
5.4453125000,87,80.0000000000,,,
5.4472656250,87,-34.0000000000,,,
5.4492187500,87,-4.0000000000,,,
5.4511718750,87,70.0000000000,,,
5.4531250000,87,96.0000000000,,,
5.4550781250,87,87.0000000000,,,
5.4570312500,87,12.0000000000,,,
5.4589843750,87,-26.0000000000,,,
5.4609375000,87,41.0000000000,,,
5.4628906250,87,137.0000000000,,,
5.4648437500,87,133.0000000000,,,
5.4667968750,87,66.0000000000,,,
5.4687500000,87,58.0000000000,,,
5.4707031250,87,93.0000000000,,,
5.4726562500,87,130.0000000000,,,
5.4746093750,87,100.0000000000,,,
5.4765625000,87,43.0000000000,,,
5.4785156250,87,67.0000000000,,,
5.4804687500,87,91.0000000000,,,
5.4824218750,87,29.0000000000,,,
5.4843750000,87,-17.0000000000,,,
5.4863281250,87,-2.0000000000,,,
5.4882812500,87,73.0000000000,,,
5.4902343750,87,136.0000000000,,,
5.4921875000,87,23.0000000000,,,
5.4941406250,87,16.0000000000,,,
5.4960937500,87,116.0000000000,,,
5.4980468750,87,98.0000000000,,,
5.5000000000,88,34.0000000000,,,
5.5019531250,88,36.0000000000,,,
5.5039062500,88,87.0000000000,,,
5.5058593750,88,90.0000000000,,,
5.5078125000,88,-8.0000000000,,,
5.5097656250,88,-92.0000000000,,,
5.5117187500,88,-17.0000000000,,,
5.5136718750,88,124.0000000000,,,
5.5156250000,88,118.0000000000,,,
5.5175781250,88,61.0000000000,,,
5.5195312500,88,69.0000000000,,,
5.5214843750,88,83.0000000000,,,
5.5234375000,88,9.0000000000,,,
5.5253906250,88,-61.0000000000,,,
5.5273437500,88,-29.0000000000,,,
5.5292968750,88,75.0000000000,,,
5.5312500000,88,68.0000000000,,,
5.5332031250,88,-36.0000000000,,,
5.5351562500,88,-9.0000000000,,,
5.5371093750,88,104.0000000000,,,
5.5390625000,88,164.0000000000,,,
5.5410156250,88,117.0000000000,,,
5.5429687500,88,34.0000000000,,,
5.5449218750,88,40.0000000000,,,
5.5468750000,88,16.0000000000,,,
5.5488281250,88,-53.0000000000,,,
5.5507812500,88,-97.0000000000,,,
5.5527343750,88,-27.0000000000,,,
5.5546875000,88,35.0000000000,,,
5.5566406250,88,-8.0000000000,,,
5.5585937500,88,-123.0000000000,,,
5.5605468750,88,-151.0000000000,,,
5.5625000000,89,-57.0000000000,,,
5.5644531250,89,38.0000000000,,,
5.5664062500,89,83.0000000000,,,
5.5683593750,89,45.0000000000,,,
5.5703125000,89,5.0000000000,,,
5.5722656250,89,-5.0000000000,,,
5.5742187500,89,9.0000000000,,,
5.5761718750,89,68.0000000000,,,
5.5781250000,89,116.0000000000,,,
5.5800781250,89,169.0000000000,,,
5.5820312500,89,204.0000000000,,,
5.5839843750,89,132.0000000000,,,
5.5859375000,89,54.0000000000,,,
5.5878906250,89,42.0000000000,,,
5.5898437500,89,73.0000000000,,,
5.5917968750,89,54.0000000000,,,
5.5937500000,89,57.0000000000,,,
5.5957031250,89,97.0000000000,,,
5.5976562500,89,44.0000000000,,,
5.5996093750,89,-76.0000000000,,,
5.6015625000,89,-201.0000000000,,,
5.6035156250,89,-203.0000000000,,,
5.6054687500,89,-113.0000000000,,,
5.6074218750,89,-93.0000000000,,,
5.6093750000,89,-98.0000000000,,,
5.6113281250,89,-28.0000000000,,,
5.6132812500,89,9.0000000000,,,
5.6152343750,89,-69.0000000000,,,
5.6171875000,89,-148.0000000000,,,
5.6191406250,89,-147.0000000000,,,
5.6210937500,89,-54.0000000000,,,
5.6230468750,89,-6.0000000000,,,
5.6250000000,90,-38.0000000000,,,
5.6269531250,90,-102.0000000000,,,
5.6289062500,90,-101.0000000000,,,
5.6308593750,90,-12.0000000000,,,
5.6328125000,90,104.0000000000,,,
5.6347656250,90,184.0000000000,,,
5.6367187500,90,171.0000000000,,,
5.6386718750,90,117.0000000000,,,
5.6406250000,90,40.0000000000,,,
5.6425781250,90,-26.0000000000,,,
5.6445312500,90,-53.0000000000,,,
5.6464843750,90,-40.0000000000,,,
5.6484375000,90,49.0000000000,,,
5.6503906250,90,65.0000000000,,,
5.6523437500,90,-55.0000000000,,,
5.6542968750,90,-109.0000000000,,,
5.6562500000,90,-8.0000000000,,,
5.6582031250,90,138.0000000000,,,
5.6601562500,90,193.0000000000,,,
5.6621093750,90,53.0000000000,,,
5.6640625000,90,-18.0000000000,,,
5.6660156250,90,76.0000000000,,,
5.6679687500,90,139.0000000000,,,
5.6699218750,90,135.0000000000,,,
5.6718750000,90,59.0000000000,,,
5.6738281250,90,26.0000000000,,,
5.6757812500,90,103.0000000000,,,
5.6777343750,90,235.0000000000,,,
5.6796875000,90,354.0000000000,,,
5.6816406250,90,249.0000000000,,,
5.6835937500,90,-17.0000000000,,,
5.6855468750,90,-117.0000000000,,,
5.6875000000,91,-6.0000000000,,,
5.6894531250,91,151.0000000000,,,
5.6914062500,91,182.0000000000,,,
5.6933593750,91,18.0000000000,,,
5.6953125000,91,-78.0000000000,,,
5.6972656250,91,77.0000000000,,,
5.6992187500,91,259.0000000000,,,
5.7011718750,91,308.0000000000,,,
5.7031250000,91,277.0000000000,,,
5.7050781250,91,249.0000000000,,,
5.7070312500,91,198.0000000000,,,
5.7089843750,91,118.0000000000,,,
5.7109375000,91,53.0000000000,,,
5.7128906250,91,42.0000000000,,,
5.7148437500,91,128.0000000000,,,
5.7167968750,91,164.0000000000,,,
5.7187500000,91,76.0000000000,,,
5.7207031250,91,24.0000000000,,,
5.7226562500,91,108.0000000000,,,
5.7246093750,91,173.0000000000,,,
5.7265625000,91,205.0000000000,,,
5.7285156250,91,220.0000000000,,,
5.7304687500,91,274.0000000000,33552,5.7304687500,0.0000000000
5.7324218750,91,284.0000000000,,,
5.7343750000,91,205.0000000000,,,
5.7363281250,91,181.0000000000,,,
5.7382812500,91,213.0000000000,,,
5.7402343750,91,81.0000000000,,,
5.7421875000,91,-56.0000000000,,,
5.7441406250,91,-98.0000000000,,,
5.7460937500,91,-56.0000000000,,,
5.7480468750,91,23.0000000000,,,
5.7500000000,92,80.0000000000,,,
5.7519531250,92,137.0000000000,,,
5.7539062500,92,154.0000000000,,,
5.7558593750,92,87.0000000000,,,
5.7578125000,92,2.0000000000,,,
5.7597656250,92,-23.0000000000,,,
5.7617187500,92,25.0000000000,,,
5.7636718750,92,161.0000000000,,,
5.7656250000,92,161.0000000000,,,
5.7675781250,92,49.0000000000,,,
5.7695312500,92,27.0000000000,,,
5.7714843750,92,4.0000000000,,,
5.7734375000,92,-51.0000000000,,,
5.7753906250,92,3.0000000000,,,
5.7773437500,92,162.0000000000,,,
5.7792968750,92,189.0000000000,,,
5.7812500000,92,65.0000000000,,,
5.7832031250,92,-33.0000000000,,,
5.7851562500,92,51.0000000000,,,
5.7871093750,92,103.0000000000,,,
5.7890625000,92,5.0000000000,,,
5.7910156250,92,-74.0000000000,,,
5.7929687500,92,-108.0000000000,,,
5.7949218750,92,-168.0000000000,,,
5.7968750000,92,-186.0000000000,,,
5.7988281250,92,-170.0000000000,,,
5.8007812500,92,-126.0000000000,,,
5.8027343750,92,58.0000000000,,,
5.8046875000,92,281.0000000000,,,
5.8066406250,92,354.0000000000,,,
5.8085937500,92,230.0000000000,,,
5.8105468750,92,55.0000000000,,,
5.8125000000,93,-22.0000000000,,,
5.8144531250,93,9.0000000000,,,
5.8164062500,93,65.0000000000,,,
5.8183593750,93,81.0000000000,,,
5.8203125000,93,55.0000000000,,,
5.8222656250,93,-18.0000000000,,,
5.8242187500,93,-27.0000000000,,,
5.8261718750,93,42.0000000000,,,
5.8281250000,93,160.0000000000,,,
5.8300781250,93,279.0000000000,,,
5.8320312500,93,133.0000000000,,,
5.8339843750,93,-116.0000000000,,,
5.8359375000,93,-134.0000000000,,,
5.8378906250,93,17.0000000000,,,
5.8398437500,93,136.0000000000,,,
5.8417968750,93,136.0000000000,,,
5.8437500000,93,55.0000000000,,,
5.8457031250,93,-24.0000000000,,,
5.8476562500,93,-13.0000000000,,,
5.8496093750,93,60.0000000000,,,
5.8515625000,93,20.0000000000,,,
5.8535156250,93,-5.0000000000,,,
5.8554687500,93,-5.0000000000,,,
5.8574218750,93,1.0000000000,,,
5.8593750000,93,44.0000000000,,,
5.8613281250,93,-7.0000000000,,,
5.8632812500,93,-94.0000000000,,,
5.8652343750,93,-116.0000000000,,,
5.8671875000,93,-2.0000000000,,,
5.8691406250,93,200.0000000000,,,
5.8710937500,93,291.0000000000,,,
5.8730468750,93,275.0000000000,,,
5.8750000000,94,183.0000000000,,,
5.8769531250,94,98.0000000000,,,
5.8789062500,94,128.0000000000,,,
5.8808593750,94,187.0000000000,,,
5.8828125000,94,140.0000000000,,,
5.8847656250,94,-21.0000000000,,,
5.8867187500,94,-124.0000000000,,,
5.8886718750,94,-53.0000000000,,,
5.8906250000,94,77.0000000000,,,
5.8925781250,94,124.0000000000,,,
5.8945312500,94,136.0000000000,,,
5.8964843750,94,165.0000000000,,,
5.8984375000,94,212.0000000000,,,
5.9003906250,94,232.0000000000,,,
5.9023437500,94,178.0000000000,,,
5.9042968750,94,140.0000000000,,,
5.9062500000,94,58.0000000000,,,
5.9082031250,94,-50.0000000000,,,
5.9101562500,94,8.0000000000,,,
5.9121093750,94,96.0000000000,,,
5.9140625000,94,89.0000000000,,,
5.9160156250,94,87.0000000000,,,
5.9179687500,94,121.0000000000,,,
5.9199218750,94,100.0000000000,,,
5.9218750000,94,20.0000000000,,,
5.9238281250,94,-56.0000000000,,,
5.9257812500,94,-7.0000000000,,,
5.9277343750,94,49.0000000000,,,
5.9296875000,94,37.0000000000,,,
5.9316406250,94,22.0000000000,,,
5.9335937500,94,50.0000000000,,,
5.9355468750,94,91.0000000000,,,
5.9375000000,95,145.0000000000,,,
5.9394531250,95,184.0000000000,,,
5.9414062500,95,216.0000000000,,,
5.9433593750,95,224.0000000000,,,
5.9453125000,95,134.0000000000,,,
5.9472656250,95,-19.0000000000,,,
5.9492187500,95,-33.0000000000,,,
5.9511718750,95,-57.0000000000,,,
5.9531250000,95,-98.0000000000,,,
5.9550781250,95,-90.0000000000,,,
5.9570312500,95,-50.0000000000,,,
5.9589843750,95,-29.0000000000,,,
5.9609375000,95,-14.0000000000,,,
5.9628906250,95,60.0000000000,,,
5.9648437500,95,64.0000000000,,,
5.9667968750,95,-1.0000000000,,,
5.9687500000,95,-44.0000000000,,,
5.9707031250,95,-90.0000000000,,,
5.9726562500,95,-67.0000000000,,,
5.9746093750,95,40.0000000000,,,
5.9765625000,95,99.0000000000,,,
5.9785156250,95,83.0000000000,,,
5.9804687500,95,59.0000000000,,,
5.9824218750,95,45.0000000000,,,
5.9843750000,95,87.0000000000,,,
5.9863281250,95,122.0000000000,,,
5.9882812500,95,66.0000000000,,,
5.9902343750,95,18.0000000000,,,
5.9921875000,95,-25.0000000000,,,
5.9941406250,95,-4.0000000000,,,
5.9960937500,95,96.0000000000,,,
5.9980468750,95,137.0000000000,,,
6.0000000000,96,172.0000000000,,,
6.0019531250,96,213.0000000000,,,
6.0039062500,96,162.0000000000,,,
6.0058593750,96,22.0000000000,,,
6.0078125000,96,-69.0000000000,,,
6.0097656250,96,-92.0000000000,,,
6.0117187500,96,-68.0000000000,,,
6.0136718750,96,-57.0000000000,,,
6.0156250000,96,-104.0000000000,,,
6.0175781250,96,-154.0000000000,,,
6.0195312500,96,-200.0000000000,,,
6.0214843750,96,-166.0000000000,,,
6.0234375000,96,-56.0000000000,,,
6.0253906250,96,-22.0000000000,,,
6.0273437500,96,-119.0000000000,,,
6.0292968750,96,-241.0000000000,,,
6.0312500000,96,-219.0000000000,,,
6.0332031250,96,-139.0000000000,,,
6.0351562500,96,-145.0000000000,,,
6.0371093750,96,-177.0000000000,,,
6.0390625000,96,-131.0000000000,,,
6.0410156250,96,-77.0000000000,,,
6.0429687500,96,-18.0000000000,,,
6.0449218750,96,33.0000000000,,,
6.0468750000,96,-25.0000000000,,,
6.0488281250,96,-66.0000000000,,,
6.0507812500,96,-5.0000000000,,,
6.0527343750,96,32.0000000000,,,
6.0546875000,96,18.0000000000,,,
6.0566406250,96,11.0000000000,,,
6.0585937500,96,-78.0000000000,,,
6.0605468750,96,-165.0000000000,,,
6.0625000000,97,-199.0000000000,,,
6.0644531250,97,-217.0000000000,,,
6.0664062500,97,-169.0000000000,,,
6.0683593750,97,-69.0000000000,,,
6.0703125000,97,-74.0000000000,,,
6.0722656250,97,-132.0000000000,,,
6.0742187500,97,-100.0000000000,,,
6.0761718750,97,-26.0000000000,,,
6.0781250000,97,45.0000000000,,,
6.0800781250,97,104.0000000000,,,
6.0820312500,97,39.0000000000,,,
6.0839843750,97,-57.0000000000,,,
6.0859375000,97,-94.0000000000,,,
6.0878906250,97,-51.0000000000,,,
6.0898437500,97,0.0000000000,,,
6.0917968750,97,11.0000000000,,,
6.0937500000,97,27.0000000000,,,
6.0957031250,97,9.0000000000,,,
6.0976562500,97,24.0000000000,,,
6.0996093750,97,43.0000000000,,,
6.1015625000,97,12.0000000000,,,
6.1035156250,97,13.0000000000,,,
6.1054687500,97,80.0000000000,,,
6.1074218750,97,123.0000000000,,,
6.1093750000,97,108.0000000000,,,
6.1113281250,97,92.0000000000,,,
6.1132812500,97,74.0000000000,,,
6.1152343750,97,33.0000000000,,,
6.1171875000,97,33.0000000000,,,
6.1191406250,97,68.0000000000,,,
6.1210937500,97,129.0000000000,,,
6.1230468750,97,100.0000000000,,,
6.1250000000,98,-20.0000000000,,,
6.1269531250,98,-67.0000000000,,,
6.1289062500,98,-33.0000000000,,,
6.1308593750,98,23.0000000000,,,
6.1328125000,98,101.0000000000,,,
6.1347656250,98,121.0000000000,,,
6.1367187500,98,71.0000000000,,,
6.1386718750,98,10.0000000000,,,
6.1406250000,98,-21.0000000000,,,
6.1425781250,98,33.0000000000,,,
6.1445312500,98,128.0000000000,,,
6.1464843750,98,122.0000000000,,,
6.1484375000,98,97.0000000000,,,
6.1503906250,98,114.0000000000,,,
6.1523437500,98,116.0000000000,,,
6.1542968750,98,118.0000000000,,,
6.1562500000,98,86.0000000000,,,
6.1582031250,98,20.0000000000,,,
6.1601562500,98,1.0000000000,,,
6.1621093750,98,48.0000000000,,,
6.1640625000,98,82.0000000000,,,
6.1660156250,98,83.0000000000,,,
6.1679687500,98,117.0000000000,,,
6.1699218750,98,146.0000000000,,,
6.1718750000,98,103.0000000000,,,
6.1738281250,98,9.0000000000,,,
6.1757812500,98,-38.0000000000,,,
6.1777343750,98,-33.0000000000,,,
6.1796875000,98,-10.0000000000,,,
6.1816406250,98,28.0000000000,,,
6.1835937500,98,10.0000000000,,,
6.1855468750,98,-3.0000000000,,,
6.1875000000,99,64.0000000000,,,
6.1894531250,99,102.0000000000,,,
6.1914062500,99,106.0000000000,,,
6.1933593750,99,101.0000000000,,,
6.1953125000,99,135.0000000000,,,
6.1972656250,99,144.0000000000,,,
6.1992187500,99,149.0000000000,,,
6.2011718750,99,105.0000000000,,,
6.2031250000,99,87.0000000000,,,
6.2050781250,99,118.0000000000,,,
6.2070312500,99,150.0000000000,,,
6.2089843750,99,91.0000000000,,,
6.2109375000,99,19.0000000000,,,
6.2128906250,99,-18.0000000000,,,
6.2148437500,99,-26.0000000000,,,
6.2167968750,99,6.0000000000,,,
6.2187500000,99,18.0000000000,,,
6.2207031250,99,-1.0000000000,,,
6.2226562500,99,50.0000000000,,,
6.2246093750,99,144.0000000000,,,
6.2265625000,99,214.0000000000,,,
6.2285156250,99,180.0000000000,,,
6.2304687500,99,60.0000000000,,,
6.2324218750,99,-1.0000000000,,,
6.2343750000,99,6.0000000000,,,
6.2363281250,99,19.0000000000,,,
6.2382812500,99,-23.0000000000,,,
6.2402343750,99,-93.0000000000,,,
6.2421875000,99,-114.0000000000,,,
6.2441406250,99,-28.0000000000,,,
6.2460937500,99,61.0000000000,,,
6.2480468750,99,101.0000000000,,,
6.2500000000,100,146.0000000000,,,
6.2519531250,100,148.0000000000,,,
6.2539062500,100,108.0000000000,,,
6.2558593750,100,28.0000000000,,,
6.2578125000,100,35.0000000000,,,
6.2597656250,100,106.0000000000,,,
6.2617187500,100,124.0000000000,,,
6.2636718750,100,106.0000000000,,,
6.2656250000,100,69.0000000000,,,
6.2675781250,100,20.0000000000,,,
6.2695312500,100,11.0000000000,,,
6.2714843750,100,21.0000000000,,,
6.2734375000,100,1.0000000000,,,
6.2753906250,100,-8.0000000000,,,
6.2773437500,100,17.0000000000,,,
6.2792968750,100,88.0000000000,,,
6.2812500000,100,112.0000000000,,,
6.2832031250,100,66.0000000000,,,
6.2851562500,100,76.0000000000,,,
6.2871093750,100,136.0000000000,,,
6.2890625000,100,203.0000000000,,,
6.2910156250,100,217.0000000000,,,
6.2929687500,100,108.0000000000,,,
6.2949218750,100,17.0000000000,,,
6.2968750000,100,23.0000000000,,,
6.2988281250,100,33.0000000000,,,
6.3007812500,100,25.0000000000,,,
6.3027343750,100,38.0000000000,,,
6.3046875000,100,83.0000000000,,,
6.3066406250,100,125.0000000000,,,
6.3085937500,100,121.0000000000,,,
6.3105468750,100,72.0000000000,,,
6.3125000000,101,66.0000000000,,,
6.3144531250,101,89.0000000000,,,
6.3164062500,101,75.0000000000,,,
6.3183593750,101,66.0000000000,,,
6.3203125000,101,57.0000000000,,,
6.3222656250,101,53.0000000000,,,
6.3242187500,101,70.0000000000,,,
6.3261718750,101,129.0000000000,,,
6.3281250000,101,186.0000000000,,,
6.3300781250,101,170.0000000000,,,
6.3320312500,101,124.0000000000,,,
6.3339843750,101,82.0000000000,,,
6.3359375000,101,36.0000000000,,,
6.3378906250,101,17.0000000000,,,
6.3398437500,101,51.0000000000,,,
6.3417968750,101,42.0000000000,,,
6.3437500000,101,18.0000000000,,,
6.3457031250,101,35.0000000000,,,
6.3476562500,101,54.0000000000,,,
6.3496093750,101,34.0000000000,,,
6.3515625000,101,11.0000000000,,,
6.3535156250,101,22.0000000000,,,
6.3554687500,101,26.0000000000,,,
6.3574218750,101,33.0000000000,,,
6.3593750000,101,21.0000000000,,,
6.3613281250,101,18.0000000000,,,
6.3632812500,101,26.0000000000,,,
6.3652343750,101,82.0000000000,,,
6.3671875000,101,89.0000000000,,,
6.3691406250,101,39.0000000000,,,
6.3710937500,101,6.0000000000,,,
6.3730468750,101,3.0000000000,,,
6.3750000000,102,19.0000000000,,,
6.3769531250,102,36.0000000000,,,
6.3789062500,102,-28.0000000000,,,
6.3808593750,102,-105.0000000000,,,
6.3828125000,102,-83.0000000000,,,
6.3847656250,102,12.0000000000,,,
6.3867187500,102,57.0000000000,,,
6.3886718750,102,39.0000000000,,,
6.3906250000,102,23.0000000000,,,
6.3925781250,102,37.0000000000,,,
6.3945312500,102,72.0000000000,,,
6.3964843750,102,119.0000000000,,,
6.3984375000,102,122.0000000000,,,
6.4003906250,102,134.0000000000,,,
6.4023437500,102,122.0000000000,,,
6.4042968750,102,51.0000000000,,,
6.4062500000,102,-25.0000000000,,,
6.4082031250,102,-17.0000000000,,,
6.4101562500,102,66.0000000000,,,
6.4121093750,102,60.0000000000,,,
6.4140625000,102,-19.0000000000,,,
6.4160156250,102,-51.0000000000,,,
6.4179687500,102,12.0000000000,,,
6.4199218750,102,134.0000000000,,,
6.4218750000,102,131.0000000000,,,
6.4238281250,102,52.0000000000,,,
6.4257812500,102,39.0000000000,,,
6.4277343750,102,48.0000000000,,,
6.4296875000,102,39.0000000000,,,
6.4316406250,102,41.0000000000,,,
6.4335937500,102,61.0000000000,,,
6.4355468750,102,71.0000000000,,,
6.4375000000,103,-27.0000000000,,,
6.4394531250,103,-110.0000000000,,,
6.4414062500,103,-73.0000000000,,,
6.4433593750,103,-10.0000000000,,,
6.4453125000,103,-18.0000000000,,,
6.4472656250,103,2.0000000000,,,
6.4492187500,103,41.0000000000,,,
6.4511718750,103,59.0000000000,,,
6.4531250000,103,50.0000000000,,,
6.4550781250,103,22.0000000000,,,
6.4570312500,103,-42.0000000000,,,
6.4589843750,103,-122.0000000000,,,
6.4609375000,103,-136.0000000000,,,
6.4628906250,103,-106.0000000000,,,
6.4648437500,103,-93.0000000000,,,
6.4667968750,103,-54.0000000000,,,
6.4687500000,103,9.0000000000,,,
6.4707031250,103,72.0000000000,,,
6.4726562500,103,144.0000000000,,,
6.4746093750,103,177.0000000000,,,
6.4765625000,103,192.0000000000,,,
6.4785156250,103,235.0000000000,,,
6.4804687500,103,256.0000000000,,,
6.4824218750,103,162.0000000000,,,
6.4843750000,103,59.0000000000,,,
6.4863281250,103,52.0000000000,,,
6.4882812500,103,2.0000000000,,,
6.4902343750,103,-13.0000000000,,,
6.4921875000,103,34.0000000000,,,
6.4941406250,103,20.0000000000,,,
6.4960937500,103,-26.0000000000,,,
6.4980468750,103,-50.0000000000,,,
6.5000000000,104,-69.0000000000,,,
6.5019531250,104,-87.0000000000,,,
6.5039062500,104,-70.0000000000,,,
6.5058593750,104,-10.0000000000,,,
6.5078125000,104,44.0000000000,,,
6.5097656250,104,57.0000000000,,,
6.5117187500,104,50.0000000000,,,
6.5136718750,104,28.0000000000,,,
6.5156250000,104,3.0000000000,,,
6.5175781250,104,-54.0000000000,,,
6.5195312500,104,-58.0000000000,,,
6.5214843750,104,10.0000000000,,,
6.5234375000,104,7.0000000000,,,
6.5253906250,104,-17.0000000000,,,
6.5273437500,104,4.0000000000,,,
6.5292968750,104,12.0000000000,,,
6.5312500000,104,23.0000000000,,,
6.5332031250,104,53.0000000000,,,
6.5351562500,104,93.0000000000,,,
6.5371093750,104,123.0000000000,,,
6.5390625000,104,130.0000000000,,,
6.5410156250,104,105.0000000000,,,
6.5429687500,104,54.0000000000,,,
6.5449218750,104,20.0000000000,,,
6.5468750000,104,37.0000000000,,,
6.5488281250,104,29.0000000000,,,
6.5507812500,104,-3.0000000000,,,
6.5527343750,104,-26.0000000000,,,
6.5546875000,104,-49.0000000000,,,
6.5566406250,104,-45.0000000000,,,
6.5585937500,104,-53.0000000000,,,
6.5605468750,104,-22.0000000000,,,
6.5625000000,105,16.0000000000,,,
6.5644531250,105,21.0000000000,,,
6.5664062500,105,24.0000000000,,,
6.5683593750,105,93.0000000000,,,
6.5703125000,105,154.0000000000,,,
6.5722656250,105,120.0000000000,,,
6.5742187500,105,73.0000000000,,,
6.5761718750,105,84.0000000000,,,
6.5781250000,105,112.0000000000,,,
6.5800781250,105,102.0000000000,,,
6.5820312500,105,51.0000000000,,,
6.5839843750,105,45.0000000000,,,
6.5859375000,105,96.0000000000,,,
6.5878906250,105,82.0000000000,,,
6.5898437500,105,32.0000000000,,,
6.5917968750,105,59.0000000000,,,
6.5937500000,105,147.0000000000,,,
6.5957031250,105,184.0000000000,,,
6.5976562500,105,144.0000000000,,,
6.5996093750,105,72.0000000000,,,
6.6015625000,105,11.0000000000,,,
6.6035156250,105,-5.0000000000,,,
6.6054687500,105,27.0000000000,,,
6.6074218750,105,80.0000000000,,,
6.6093750000,105,58.0000000000,,,
6.6113281250,105,50.0000000000,,,
6.6132812500,105,75.0000000000,,,
6.6152343750,105,130.0000000000,,,
6.6171875000,105,186.0000000000,,,
6.6191406250,105,180.0000000000,,,
6.6210937500,105,137.0000000000,,,
6.6230468750,105,138.0000000000,,,
6.6250000000,106,122.0000000000,,,
6.6269531250,106,61.0000000000,,,
6.6289062500,106,35.0000000000,,,
6.6308593750,106,90.0000000000,,,
6.6328125000,106,150.0000000000,,,
6.6347656250,106,100.0000000000,,,
6.6367187500,106,36.0000000000,,,
6.6386718750,106,76.0000000000,,,
6.6406250000,106,178.0000000000,,,
6.6425781250,106,186.0000000000,,,
6.6445312500,106,67.0000000000,,,
6.6464843750,106,0.0000000000,,,
6.6484375000,106,27.0000000000,,,
6.6503906250,106,98.0000000000,,,
6.6523437500,106,136.0000000000,,,
6.6542968750,106,38.0000000000,,,
6.6562500000,106,-71.0000000000,,,
6.6582031250,106,-38.0000000000,,,
6.6601562500,106,49.0000000000,,,
6.6621093750,106,-11.0000000000,,,
6.6640625000,106,-203.0000000000,,,
6.6660156250,106,-301.0000000000,,,
6.6679687500,106,-262.0000000000,,,
6.6699218750,106,-215.0000000000,,,
6.6718750000,106,-148.0000000000,,,
6.6738281250,106,-28.0000000000,,,
6.6757812500,106,-24.0000000000,,,
6.6777343750,106,-189.0000000000,,,
6.6796875000,106,-228.0000000000,,,
6.6816406250,106,-57.0000000000,,,
6.6835937500,106,41.0000000000,,,
6.6855468750,106,22.0000000000,,,
6.6875000000,107,56.0000000000,,,
6.6894531250,107,102.0000000000,,,
6.6914062500,107,101.0000000000,,,
6.6933593750,107,76.0000000000,,,
6.6953125000,107,73.0000000000,,,
6.6972656250,107,67.0000000000,,,
6.6992187500,107,69.0000000000,,,
6.7011718750,107,11.0000000000,,,
6.7031250000,107,-70.0000000000,,,
6.7050781250,107,-70.0000000000,,,
6.7070312500,107,-25.0000000000,,,
6.7089843750,107,-34.0000000000,,,
6.7109375000,107,-43.0000000000,,,
6.7128906250,107,55.0000000000,,,
6.7148437500,107,218.0000000000,,,
6.7167968750,107,332.0000000000,,,
6.7187500000,107,218.0000000000,,,
6.7207031250,107,-3.0000000000,,,
6.7226562500,107,-74.0000000000,,,
6.7246093750,107,0.0000000000,,,
6.7265625000,107,99.0000000000,,,
6.7285156250,107,70.0000000000,,,
6.7304687500,107,9.0000000000,,,
6.7324218750,107,12.0000000000,,,
6.7343750000,107,-25.0000000000,,,
6.7363281250,107,-54.0000000000,,,
6.7382812500,107,-51.0000000000,,,
6.7402343750,107,-11.0000000000,,,
6.7421875000,107,-17.0000000000,,,
6.7441406250,107,-73.0000000000,,,
6.7460937500,107,-77.0000000000,,,
6.7480468750,107,-33.0000000000,,,
6.7500000000,108,-3.0000000000,,,
6.7519531250,108,-9.0000000000,,,
6.7539062500,108,-17.0000000000,,,
6.7558593750,108,-29.0000000000,,,
6.7578125000,108,-29.0000000000,,,
6.7597656250,108,-34.0000000000,,,
6.7617187500,108,-84.0000000000,,,
6.7636718750,108,-90.0000000000,,,
6.7656250000,108,-43.0000000000,,,
6.7675781250,108,-1.0000000000,,,
6.7695312500,108,43.0000000000,,,
6.7714843750,108,18.0000000000,,,
6.7734375000,108,-49.0000000000,,,
6.7753906250,108,-65.0000000000,,,
6.7773437500,108,-40.0000000000,,,
6.7792968750,108,-46.0000000000,,,
6.7812500000,108,-57.0000000000,,,
6.7832031250,108,-46.0000000000,,,
6.7851562500,108,-98.0000000000,,,
6.7871093750,108,-97.0000000000,,,
6.7890625000,108,-14.0000000000,,,
6.7910156250,108,66.0000000000,,,
6.7929687500,108,145.0000000000,,,
6.7949218750,108,119.0000000000,,,
6.7968750000,108,22.0000000000,,,
6.7988281250,108,-22.0000000000,,,
6.8007812500,108,12.0000000000,,,
6.8027343750,108,87.0000000000,,,
6.8046875000,108,74.0000000000,,,
6.8066406250,108,22.0000000000,,,
6.8085937500,108,26.0000000000,,,
6.8105468750,108,92.0000000000,,,
6.8125000000,109,148.0000000000,,,
6.8144531250,109,155.0000000000,,,
6.8164062500,109,102.0000000000,,,
6.8183593750,109,80.0000000000,,,
6.8203125000,109,89.0000000000,,,
6.8222656250,109,86.0000000000,,,
6.8242187500,109,101.0000000000,,,
6.8261718750,109,99.0000000000,,,
6.8281250000,109,66.0000000000,,,
6.8300781250,109,17.0000000000,,,
6.8320312500,109,-20.0000000000,,,
6.8339843750,109,32.0000000000,,,
6.8359375000,109,146.0000000000,,,
6.8378906250,109,183.0000000000,,,
6.8398437500,109,130.0000000000,,,
6.8417968750,109,26.0000000000,,,
6.8437500000,109,24.0000000000,,,
6.8457031250,109,145.0000000000,,,
6.8476562500,109,181.0000000000,,,
6.8496093750,109,147.0000000000,,,
6.8515625000,109,107.0000000000,,,
6.8535156250,109,60.0000000000,,,
6.8554687500,109,44.0000000000,,,
6.8574218750,109,81.0000000000,,,
6.8593750000,109,144.0000000000,,,
6.8613281250,109,183.0000000000,,,
6.8632812500,109,146.0000000000,,,
6.8652343750,109,100.0000000000,,,
6.8671875000,109,165.0000000000,,,
6.8691406250,109,292.0000000000,,,
6.8710937500,109,358.0000000000,,,
6.8730468750,109,277.0000000000,,,
6.8750000000,110,210.0000000000,,,
6.8769531250,110,231.0000000000,,,
6.8789062500,110,193.0000000000,,,
6.8808593750,110,117.0000000000,,,
6.8828125000,110,54.0000000000,,,
6.8847656250,110,60.0000000000,,,
6.8867187500,110,96.0000000000,,,
6.8886718750,110,44.0000000000,,,
6.8906250000,110,-8.0000000000,,,
6.8925781250,110,32.0000000000,,,
6.8945312500,110,86.0000000000,,,
6.8964843750,110,87.0000000000,,,
6.8984375000,110,56.0000000000,,,
6.9003906250,110,34.0000000000,,,
6.9023437500,110,-28.0000000000,,,
6.9042968750,110,-148.0000000000,,,
6.9062500000,110,-113.0000000000,,,
6.9082031250,110,-9.0000000000,,,
6.9101562500,110,23.0000000000,,,
6.9121093750,110,25.0000000000,,,
6.9140625000,110,22.0000000000,,,
6.9160156250,110,5.0000000000,,,
6.9179687500,110,-24.0000000000,,,
6.9199218750,110,6.0000000000,,,
6.9218750000,110,66.0000000000,,,
6.9238281250,110,119.0000000000,,,
6.9257812500,110,170.0000000000,,,
6.9277343750,110,152.0000000000,,,
6.9296875000,110,131.0000000000,,,
6.9316406250,110,105.0000000000,,,
6.9335937500,110,23.0000000000,,,
6.9355468750,110,22.0000000000,,,
6.9375000000,111,87.0000000000,,,
6.9394531250,111,140.0000000000,,,
6.9414062500,111,116.0000000000,,,
6.9433593750,111,56.0000000000,,,
6.9453125000,111,39.0000000000,,,
6.9472656250,111,48.0000000000,,,
6.9492187500,111,35.0000000000,,,
6.9511718750,111,23.0000000000,,,
6.9531250000,111,3.0000000000,,,
6.9550781250,111,-7.0000000000,,,
6.9570312500,111,-4.0000000000,,,
6.9589843750,111,-57.0000000000,,,
6.9609375000,111,-66.0000000000,,,
6.9628906250,111,52.0000000000,,,
6.9648437500,111,196.0000000000,,,
6.9667968750,111,217.0000000000,,,
6.9687500000,111,154.0000000000,,,
6.9707031250,111,128.0000000000,,,
6.9726562500,111,108.0000000000,,,
