Time:512Hz,Epoch,Electrode,Event Id,Event Date,Event Duration
0.0000000000,0,-125.0000000000,,,
0.0019531250,0,-135.0000000000,,,
0.0039062500,0,-121.0000000000,,,
0.0058593750,0,-92.0000000000,,,
0.0078125000,0,-118.0000000000,,,
0.0097656250,0,-179.0000000000,,,
0.0117187500,0,-190.0000000000,,,
0.0136718750,0,-145.0000000000,,,
0.0156250000,0,-131.0000000000,,,
0.0175781250,0,-154.0000000000,,,
0.0195312500,0,-163.0000000000,,,
0.0214843750,0,-130.0000000000,,,
0.0234375000,0,-86.0000000000,,,
0.0253906250,0,-71.0000000000,,,
0.0273437500,0,-84.0000000000,,,
0.0292968750,0,-90.0000000000,,,
0.0312500000,0,-101.0000000000,,,
0.0332031250,0,-102.0000000000,,,
0.0351562500,0,-90.0000000000,,,
0.0371093750,0,-99.0000000000,,,
0.0390625000,0,-114.0000000000,,,
0.0410156250,0,-122.0000000000,,,
0.0429687500,0,-118.0000000000,,,
0.0449218750,0,-84.0000000000,,,
0.0468750000,0,-55.0000000000,,,
0.0488281250,0,-61.0000000000,,,
0.0507812500,0,-74.0000000000,,,
0.0527343750,0,-123.0000000000,,,
0.0546875000,0,-157.0000000000,,,
0.0566406250,0,-140.0000000000,,,
0.0585937500,0,-91.0000000000,,,
0.0605468750,0,-68.0000000000,,,
0.0625000000,1,-56.0000000000,,,
0.0644531250,1,-25.0000000000,,,
0.0664062500,1,-2.0000000000,,,
0.0683593750,1,21.0000000000,,,
0.0703125000,1,36.0000000000,,,
0.0722656250,1,32.0000000000,,,
0.0742187500,1,12.0000000000,,,
0.0761718750,1,-6.0000000000,,,
0.0781250000,1,-10.0000000000,,,
0.0800781250,1,25.0000000000,,,
0.0820312500,1,84.0000000000,,,
0.0839843750,1,114.0000000000,,,
0.0859375000,1,122.0000000000,,,
0.0878906250,1,128.0000000000,,,
0.0898437500,1,130.0000000000,,,
0.0917968750,1,150.0000000000,,,
0.0937500000,1,180.0000000000,,,
0.0957031250,1,184.0000000000,,,
0.0976562500,1,155.0000000000,,,
0.0996093750,1,146.0000000000,,,
0.1015625000,1,153.0000000000,,,
0.1035156250,1,169.0000000000,,,
0.1054687500,1,187.0000000000,,,
0.1074218750,1,184.0000000000,,,
0.1093750000,1,160.0000000000,,,
0.1113281250,1,132.0000000000,,,
0.1132812500,1,92.0000000000,,,
0.1152343750,1,83.0000000000,,,
0.1171875000,1,86.0000000000,,,
0.1191406250,1,82.0000000000,,,
0.1210937500,1,84.0000000000,,,
0.1230468750,1,108.0000000000,,,
0.1250000000,2,121.0000000000,,,
0.1269531250,2,81.0000000000,,,
0.1289062500,2,48.0000000000,,,
0.1308593750,2,35.0000000000,,,
0.1328125000,2,27.0000000000,,,
0.1347656250,2,65.0000000000,,,
0.1367187500,2,87.0000000000,,,
0.1386718750,2,106.0000000000,,,
0.1406250000,2,91.0000000000,,,
0.1425781250,2,44.0000000000,,,
0.1445312500,2,34.0000000000,,,
0.1464843750,2,36.0000000000,,,
0.1484375000,2,11.0000000000,,,
0.1503906250,2,7.0000000000,,,
0.1523437500,2,16.0000000000,,,
0.1542968750,2,-1.0000000000,,,
0.1562500000,2,7.0000000000,,,
0.1582031250,2,64.0000000000,,,
0.1601562500,2,100.0000000000,,,
0.1621093750,2,65.0000000000,,,
0.1640625000,2,25.0000000000,,,
0.1660156250,2,70.0000000000,,,
0.1679687500,2,122.0000000000,,,
0.1699218750,2,112.0000000000,,,
0.1718750000,2,66.0000000000,,,
0.1738281250,2,32.0000000000,,,
0.1757812500,2,59.0000000000,,,
0.1777343750,2,93.0000000000,,,
0.1796875000,2,102.0000000000,,,
0.1816406250,2,67.0000000000,,,
0.1835937500,2,0.0000000000,,,
0.1855468750,2,-58.0000000000,,,
0.1875000000,3,-98.0000000000,,,
0.1894531250,3,-118.0000000000,,,
0.1914062500,3,-72.0000000000,,,
0.1933593750,3,54.0000000000,,,
0.1953125000,3,176.0000000000,,,
0.1972656250,3,182.0000000000,,,
0.1992187500,3,116.0000000000,,,
0.2011718750,3,67.0000000000,,,
0.2031250000,3,96.0000000000,,,
0.2050781250,3,164.0000000000,,,
0.2070312500,3,226.0000000000,,,
0.2089843750,3,221.0000000000,,,
0.2109375000,3,148.0000000000,,,
0.2128906250,3,112.0000000000,,,
0.2148437500,3,132.0000000000,,,
0.2167968750,3,161.0000000000,,,
0.2187500000,3,179.0000000000,,,
0.2207031250,3,150.0000000000,,,
0.2226562500,3,128.0000000000,,,
0.2246093750,3,90.0000000000,,,
0.2265625000,3,53.0000000000,,,
0.2285156250,3,35.0000000000,,,
0.2304687500,3,55.0000000000,,,
0.2324218750,3,122.0000000000,,,
0.2343750000,3,178.0000000000,,,
0.2363281250,3,194.0000000000,,,
0.2382812500,3,209.0000000000,,,
0.2402343750,3,198.0000000000,,,
0.2421875000,3,144.0000000000,,,
0.2441406250,3,91.0000000000,,,
0.2460937500,3,80.0000000000,,,
0.2480468750,3,77.0000000000,,,
0.2500000000,4,51.0000000000,,,
0.2519531250,4,25.0000000000,,,
0.2539062500,4,25.0000000000,,,
0.2558593750,4,42.0000000000,,,
0.2578125000,4,59.0000000000,,,
0.2597656250,4,55.0000000000,,,
0.2617187500,4,21.0000000000,,,
0.2636718750,4,-8.0000000000,,,
0.2656250000,4,-10.0000000000,,,
0.2675781250,4,12.0000000000,,,
0.2695312500,4,52.0000000000,,,
0.2714843750,4,76.0000000000,,,
0.2734375000,4,108.0000000000,,,
0.2753906250,4,100.0000000000,,,
0.2773437500,4,28.0000000000,,,
0.2792968750,4,8.0000000000,,,
0.2812500000,4,21.0000000000,,,
0.2832031250,4,38.0000000000,,,
0.2851562500,4,32.0000000000,,,
0.2871093750,4,9.0000000000,,,
0.2890625000,4,2.0000000000,,,
0.2910156250,4,-2.0000000000,,,
0.2929687500,4,-11.0000000000,,,
0.2949218750,4,-6.0000000000,,,
0.2968750000,4,24.0000000000,,,
0.2988281250,4,53.0000000000,,,
0.3007812500,4,68.0000000000,,,
0.3027343750,4,57.0000000000,,,
0.3046875000,4,60.0000000000,,,
0.3066406250,4,84.0000000000,,,
0.3085937500,4,87.0000000000,,,
0.3105468750,4,86.0000000000,,,
0.3125000000,5,108.0000000000,,,
0.3144531250,5,147.0000000000,,,
0.3164062500,5,121.0000000000,,,
0.3183593750,5,70.0000000000,,,
0.3203125000,5,71.0000000000,,,
0.3222656250,5,91.0000000000,,,
0.3242187500,5,103.0000000000,,,
0.3261718750,5,108.0000000000,,,
0.3281250000,5,109.0000000000,,,
0.3300781250,5,112.0000000000,,,
0.3320312500,5,122.0000000000,,,
0.3339843750,5,141.0000000000,,,
0.3359375000,5,152.0000000000,,,
0.3378906250,5,137.0000000000,,,
0.3398437500,5,128.0000000000,,,
0.3417968750,5,134.0000000000,,,
0.3437500000,5,145.0000000000,,,
0.3457031250,5,153.0000000000,,,
0.3476562500,5,156.0000000000,,,
0.3496093750,5,152.0000000000,,,
0.3515625000,5,154.0000000000,,,
0.3535156250,5,152.0000000000,,,
0.3554687500,5,138.0000000000,,,
0.3574218750,5,116.0000000000,,,
0.3593750000,5,97.0000000000,,,
0.3613281250,5,86.0000000000,,,
0.3632812500,5,60.0000000000,,,
0.3652343750,5,28.0000000000,,,
0.3671875000,5,27.0000000000,,,
0.3691406250,5,81.0000000000,,,
0.3710937500,5,133.0000000000,,,
0.3730468750,5,134.0000000000,,,
0.3750000000,6,116.0000000000,,,
0.3769531250,6,128.0000000000,,,
0.3789062500,6,160.0000000000,,,
0.3808593750,6,168.0000000000,,,
0.3828125000,6,132.0000000000,,,
0.3847656250,6,81.0000000000,,,
0.3867187500,6,83.0000000000,,,
0.3886718750,6,103.0000000000,,,
0.3906250000,6,91.0000000000,,,
0.3925781250,6,56.0000000000,,,
0.3945312500,6,52.0000000000,,,
0.3964843750,6,108.0000000000,,,
0.3984375000,6,165.0000000000,,,
0.4003906250,6,177.0000000000,,,
0.4023437500,6,161.0000000000,,,
0.4042968750,6,145.0000000000,,,
0.4062500000,6,117.0000000000,,,
0.4082031250,6,84.0000000000,,,
0.4101562500,6,84.0000000000,,,
0.4121093750,6,104.0000000000,,,
0.4140625000,6,120.0000000000,,,
0.4160156250,6,102.0000000000,,,
0.4179687500,6,55.0000000000,,,
0.4199218750,6,28.0000000000,,,
0.4218750000,6,70.0000000000,,,
0.4238281250,6,152.0000000000,,,
0.4257812500,6,179.0000000000,,,
0.4277343750,6,148.0000000000,,,
0.4296875000,6,108.0000000000,,,
0.4316406250,6,76.0000000000,,,
0.4335937500,6,57.0000000000,,,
0.4355468750,6,66.0000000000,,,
0.4375000000,7,89.0000000000,,,
0.4394531250,7,100.0000000000,,,
0.4414062500,7,81.0000000000,,,
0.4433593750,7,38.0000000000,,,
0.4453125000,7,20.0000000000,,,
0.4472656250,7,61.0000000000,,,
0.4492187500,7,117.0000000000,,,
0.4511718750,7,145.0000000000,,,
0.4531250000,7,149.0000000000,,,
0.4550781250,7,146.0000000000,,,
0.4570312500,7,122.0000000000,,,
0.4589843750,7,119.0000000000,,,
0.4609375000,7,148.0000000000,,,
0.4628906250,7,144.0000000000,,,
0.4648437500,7,102.0000000000,,,
0.4667968750,7,65.0000000000,,,
0.4687500000,7,66.0000000000,,,
0.4707031250,7,109.0000000000,,,
0.4726562500,7,139.0000000000,,,
0.4746093750,7,135.0000000000,,,
0.4765625000,7,131.0000000000,,,
0.4785156250,7,135.0000000000,,,
0.4804687500,7,132.0000000000,,,
0.4824218750,7,85.0000000000,,,
0.4843750000,7,21.0000000000,,,
0.4863281250,7,2.0000000000,,,
0.4882812500,7,3.0000000000,,,
0.4902343750,7,7.0000000000,,,
0.4921875000,7,-8.0000000000,,,
0.4941406250,7,-13.0000000000,,,
0.4960937500,7,0.0000000000,,,
0.4980468750,7,5.0000000000,,,
0.5000000000,8,-40.0000000000,,,
0.5019531250,8,-92.0000000000,,,
0.5039062500,8,-66.0000000000,,,
0.5058593750,8,-18.0000000000,,,
0.5078125000,8,-12.0000000000,,,
0.5097656250,8,-30.0000000000,,,
0.5117187500,8,-33.0000000000,,,
0.5136718750,8,-3.0000000000,,,
0.5156250000,8,1.0000000000,,,
0.5175781250,8,4.0000000000,,,
0.5195312500,8,43.0000000000,,,
0.5214843750,8,70.0000000000,,,
0.5234375000,8,51.0000000000,,,
0.5253906250,8,-11.0000000000,,,
0.5273437500,8,-70.0000000000,,,
0.5292968750,8,-83.0000000000,,,
0.5312500000,8,-61.0000000000,,,
0.5332031250,8,-50.0000000000,,,
0.5351562500,8,-82.0000000000,,,
0.5371093750,8,-98.0000000000,,,
0.5390625000,8,-50.0000000000,,,
0.5410156250,8,0.0000000000,,,
0.5429687500,8,16.0000000000,,,
0.5449218750,8,7.0000000000,,,
0.5468750000,8,-9.0000000000,,,
0.5488281250,8,-18.0000000000,,,
0.5507812500,8,4.0000000000,,,
0.5527343750,8,35.0000000000,,,
0.5546875000,8,26.0000000000,,,
0.5566406250,8,-3.0000000000,,,
0.5585937500,8,-14.0000000000,,,
0.5605468750,8,24.0000000000,,,
0.5625000000,9,104.0000000000,,,
0.5644531250,9,133.0000000000,,,
0.5664062500,9,121.0000000000,,,
0.5683593750,9,116.0000000000,,,
0.5703125000,9,112.0000000000,,,
0.5722656250,9,99.0000000000,,,
0.5742187500,9,87.0000000000,,,
0.5761718750,9,70.0000000000,,,
0.5781250000,9,59.0000000000,,,
0.5800781250,9,55.0000000000,,,
0.5820312500,9,68.0000000000,,,
0.5839843750,9,60.0000000000,,,
0.5859375000,9,21.0000000000,,,
0.5878906250,9,4.0000000000,,,
0.5898437500,9,38.0000000000,,,
0.5917968750,9,72.0000000000,,,
0.5937500000,9,67.0000000000,,,
0.5957031250,9,44.0000000000,,,
0.5976562500,9,12.0000000000,,,
0.5996093750,9,19.0000000000,,,
0.6015625000,9,64.0000000000,,,
0.6035156250,9,66.0000000000,,,
0.6054687500,9,37.0000000000,,,
0.6074218750,9,21.0000000000,,,
0.6093750000,9,19.0000000000,,,
0.6113281250,9,1.0000000000,,,
0.6132812500,9,16.0000000000,,,
0.6152343750,9,33.0000000000,,,
0.6171875000,9,-7.0000000000,,,
0.6191406250,9,-38.0000000000,,,
0.6210937500,9,-2.0000000000,,,
0.6230468750,9,21.0000000000,,,
0.6250000000,10,-1.0000000000,,,
0.6269531250,10,-18.0000000000,33552,0.6269531250,0.0000000000
0.6289062500,10,10.0000000000,,,
0.6308593750,10,9.0000000000,,,
0.6328125000,10,-24.0000000000,,,
0.6347656250,10,-39.0000000000,,,
0.6367187500,10,-12.0000000000,,,
0.6386718750,10,6.0000000000,,,
0.6406250000,10,-21.0000000000,,,
0.6425781250,10,-52.0000000000,,,
0.6445312500,10,-66.0000000000,,,
0.6464843750,10,-70.0000000000,,,
0.6484375000,10,-75.0000000000,,,
0.6503906250,10,-68.0000000000,,,
0.6523437500,10,-54.0000000000,,,
0.6542968750,10,-49.0000000000,,,
0.6562500000,10,-45.0000000000,,,
0.6582031250,10,-41.0000000000,,,
0.6601562500,10,-42.0000000000,,,
0.6621093750,10,-51.0000000000,,,
0.6640625000,10,-43.0000000000,,,
0.6660156250,10,1.0000000000,,,
0.6679687500,10,65.0000000000,,,
0.6699218750,10,81.0000000000,,,
0.6718750000,10,39.0000000000,,,
0.6738281250,10,25.0000000000,,,
0.6757812500,10,51.0000000000,,,
0.6777343750,10,80.0000000000,,,
0.6796875000,10,104.0000000000,,,
0.6816406250,10,102.0000000000,,,
0.6835937500,10,60.0000000000,,,
0.6855468750,10,22.0000000000,,,
0.6875000000,11,16.0000000000,,,
0.6894531250,11,39.0000000000,,,
0.6914062500,11,76.0000000000,,,
0.6933593750,11,91.0000000000,,,
0.6953125000,11,102.0000000000,,,
0.6972656250,11,120.0000000000,,,
0.6992187500,11,120.0000000000,,,
0.7011718750,11,107.0000000000,,,
0.7031250000,11,109.0000000000,,,
0.7050781250,11,128.0000000000,,,
0.7070312500,11,144.0000000000,,,
0.7089843750,11,137.0000000000,,,
0.7109375000,11,104.0000000000,,,
0.7128906250,11,72.0000000000,,,
0.7148437500,11,72.0000000000,,,
0.7167968750,11,91.0000000000,,,
0.7187500000,11,103.0000000000,,,
0.7207031250,11,112.0000000000,,,
0.7226562500,11,117.0000000000,,,
0.7246093750,11,121.0000000000,,,
0.7265625000,11,130.0000000000,,,
0.7285156250,11,130.0000000000,,,
0.7304687500,11,105.0000000000,,,
0.7324218750,11,81.0000000000,,,
0.7343750000,11,66.0000000000,,,
0.7363281250,11,67.0000000000,,,
0.7382812500,11,60.0000000000,,,
0.7402343750,11,59.0000000000,,,
0.7421875000,11,88.0000000000,,,
0.7441406250,11,129.0000000000,,,
0.7460937500,11,139.0000000000,,,
0.7480468750,11,120.0000000000,,,
0.7500000000,12,117.0000000000,,,
0.7519531250,12,148.0000000000,,,
0.7539062500,12,162.0000000000,,,
0.7558593750,12,152.0000000000,,,
0.7578125000,12,164.0000000000,,,
0.7597656250,12,179.0000000000,,,
0.7617187500,12,165.0000000000,,,
0.7636718750,12,116.0000000000,,,
0.7656250000,12,90.0000000000,,,
0.7675781250,12,128.0000000000,,,
0.7695312500,12,185.0000000000,,,
0.7714843750,12,199.0000000000,,,
0.7734375000,12,167.0000000000,,,
0.7753906250,12,129.0000000000,,,
0.7773437500,12,106.0000000000,,,
0.7792968750,12,113.0000000000,,,
0.7812500000,12,129.0000000000,,,
0.7832031250,12,129.0000000000,,,
0.7851562500,12,102.0000000000,,,
0.7871093750,12,70.0000000000,,,
0.7890625000,12,35.0000000000,,,
0.7910156250,12,9.0000000000,,,
0.7929687500,12,25.0000000000,,,
0.7949218750,12,44.0000000000,,,
0.7968750000,12,38.0000000000,,,
0.7988281250,12,5.0000000000,,,
0.8007812500,12,-21.0000000000,,,
0.8027343750,12,-37.0000000000,,,
0.8046875000,12,-50.0000000000,,,
0.8066406250,12,-40.0000000000,,,
0.8085937500,12,-21.0000000000,,,
0.8105468750,12,-7.0000000000,,,
0.8125000000,13,3.0000000000,,,
0.8144531250,13,-1.0000000000,,,
0.8164062500,13,-35.0000000000,,,
0.8183593750,13,-52.0000000000,,,
0.8203125000,13,-51.0000000000,,,
0.8222656250,13,-65.0000000000,,,
0.8242187500,13,-81.0000000000,,,
0.8261718750,13,-83.0000000000,,,
0.8281250000,13,-66.0000000000,,,
0.8300781250,13,-30.0000000000,,,
0.8320312500,13,-5.0000000000,,,
0.8339843750,13,1.0000000000,,,
0.8359375000,13,-6.0000000000,,,
0.8378906250,13,-1.0000000000,,,
0.8398437500,13,16.0000000000,,,
0.8417968750,13,8.0000000000,,,
0.8437500000,13,-12.0000000000,,,
0.8457031250,13,-20.0000000000,,,
0.8476562500,13,-13.0000000000,,,
0.8496093750,13,22.0000000000,,,
0.8515625000,13,56.0000000000,,,
0.8535156250,13,60.0000000000,,,
0.8554687500,13,52.0000000000,,,
0.8574218750,13,50.0000000000,,,
0.8593750000,13,71.0000000000,,,
0.8613281250,13,85.0000000000,,,
0.8632812500,13,80.0000000000,,,
0.8652343750,13,72.0000000000,,,
0.8671875000,13,87.0000000000,,,
0.8691406250,13,114.0000000000,,,
0.8710937500,13,114.0000000000,,,
0.8730468750,13,90.0000000000,,,
0.8750000000,14,82.0000000000,,,
0.8769531250,14,100.0000000000,,,
0.8789062500,14,101.0000000000,,,
0.8808593750,14,76.0000000000,,,
0.8828125000,14,72.0000000000,,,
0.8847656250,14,88.0000000000,,,
0.8867187500,14,96.0000000000,,,
0.8886718750,14,100.0000000000,,,
0.8906250000,14,121.0000000000,,,
0.8925781250,14,136.0000000000,,,
0.8945312500,14,118.0000000000,,,
0.8964843750,14,90.0000000000,,,
0.8984375000,14,88.0000000000,,,
0.9003906250,14,100.0000000000,,,
0.9023437500,14,85.0000000000,,,
0.9042968750,14,32.0000000000,,,
0.9062500000,14,9.0000000000,,,
0.9082031250,14,50.0000000000,,,
0.9101562500,14,98.0000000000,,,
0.9121093750,14,131.0000000000,,,
0.9140625000,14,133.0000000000,,,
0.9160156250,14,122.0000000000,,,
0.9179687500,14,138.0000000000,,,
0.9199218750,14,152.0000000000,,,
0.9218750000,14,135.0000000000,,,
0.9238281250,14,99.0000000000,,,
0.9257812500,14,55.0000000000,,,
0.9277343750,14,-3.0000000000,,,
0.9296875000,14,-50.0000000000,,,
0.9316406250,14,-52.0000000000,,,
0.9335937500,14,-14.0000000000,,,
0.9355468750,14,27.0000000000,,,
0.9375000000,15,49.0000000000,,,
0.9394531250,15,36.0000000000,,,
0.9414062500,15,-7.0000000000,,,
0.9433593750,15,-45.0000000000,,,
0.9453125000,15,-66.0000000000,,,
0.9472656250,15,-78.0000000000,,,
0.9492187500,15,-82.0000000000,,,
0.9511718750,15,-103.0000000000,,,
0.9531250000,15,-119.0000000000,,,
0.9550781250,15,-106.0000000000,,,
0.9570312500,15,-102.0000000000,,,
0.9589843750,15,-108.0000000000,,,
0.9609375000,15,-94.0000000000,,,
0.9628906250,15,-71.0000000000,,,
0.9648437500,15,-81.0000000000,,,
0.9667968750,15,-106.0000000000,,,
0.9687500000,15,-129.0000000000,,,
0.9707031250,15,-145.0000000000,,,
0.9726562500,15,-137.0000000000,,,
0.9746093750,15,-100.0000000000,,,
0.9765625000,15,-70.0000000000,,,
0.9785156250,15,-85.0000000000,,,
0.9804687500,15,-99.0000000000,,,
0.9824218750,15,-73.0000000000,,,
0.9843750000,15,-65.0000000000,,,
0.9863281250,15,-87.0000000000,,,
0.9882812500,15,-90.0000000000,,,
0.9902343750,15,-99.0000000000,,,
0.9921875000,15,-132.0000000000,,,
0.9941406250,15,-167.0000000000,,,
0.9960937500,15,-198.0000000000,,,
0.9980468750,15,-235.0000000000,,,
1.0000000000,16,-249.0000000000,33553,1.0000000000,0.0019531250
1.0019531250,16,-249.0000000000,33553:33554,1.0000000000:1.0019531250,0.0019531250:0.0000000000
1.0039062500,16,-234.0000000000,,,
1.0058593750,16,-234.0000000000,,,
1.0078125000,16,-248.0000000000,,,
1.0097656250,16,-259.0000000000,,,
1.0117187500,16,-260.0000000000,,,
1.0136718750,16,-265.0000000000,,,
1.0156250000,16,-270.0000000000,,,
1.0175781250,16,-258.0000000000,,,
1.0195312500,16,-234.0000000000,,,
1.0214843750,16,-252.0000000000,,,
1.0234375000,16,-294.0000000000,,,
1.0253906250,16,-310.0000000000,,,
1.0273437500,16,-299.0000000000,,,
1.0292968750,16,-281.0000000000,,,
1.0312500000,16,-259.0000000000,,,
1.0332031250,16,-251.0000000000,,,
1.0351562500,16,-261.0000000000,,,
1.0371093750,16,-246.0000000000,,,
1.0390625000,16,-206.0000000000,,,
1.0410156250,16,-168.0000000000,,,
1.0429687500,16,-134.0000000000,,,
1.0449218750,16,-118.0000000000,,,
1.0468750000,16,-106.0000000000,,,
1.0488281250,16,-93.0000000000,,,
1.0507812500,16,-85.0000000000,,,
1.0527343750,16,-81.0000000000,,,
1.0546875000,16,-51.0000000000,,,
1.0566406250,16,-10.0000000000,,,
1.0585937500,16,27.0000000000,,,
1.0605468750,16,50.0000000000,,,
1.0625000000,17,40.0000000000,,,
1.0644531250,17,25.0000000000,,,
1.0664062500,17,42.0000000000,,,
1.0683593750,17,93.0000000000,,,
1.0703125000,17,140.0000000000,,,
1.0722656250,17,154.0000000000,,,
1.0742187500,17,144.0000000000,,,
1.0761718750,17,153.0000000000,,,
1.0781250000,17,180.0000000000,,,
1.0800781250,17,200.0000000000,,,
1.0820312500,17,204.0000000000,,,
1.0839843750,17,212.0000000000,,,
1.0859375000,17,228.0000000000,,,
1.0878906250,17,217.0000000000,,,
1.0898437500,17,198.0000000000,,,
1.0917968750,17,196.0000000000,,,
1.0937500000,17,208.0000000000,,,
1.0957031250,17,241.0000000000,,,
1.0976562500,17,266.0000000000,,,
1.0996093750,17,267.0000000000,,,
1.1015625000,17,249.0000000000,,,
1.1035156250,17,236.0000000000,,,
1.1054687500,17,226.0000000000,,,
1.1074218750,17,227.0000000000,,,
1.1093750000,17,246.0000000000,,,
1.1113281250,17,262.0000000000,,,
1.1132812500,17,263.0000000000,,,
1.1152343750,17,251.0000000000,,,
1.1171875000,17,249.0000000000,,,
1.1191406250,17,248.0000000000,,,
1.1210937500,17,250.0000000000,,,
1.1230468750,17,253.0000000000,,,
1.1250000000,18,251.0000000000,,,
1.1269531250,18,258.0000000000,,,
1.1289062500,18,280.0000000000,,,
1.1308593750,18,305.0000000000,,,
1.1328125000,18,299.0000000000,,,
1.1347656250,18,294.0000000000,,,
1.1367187500,18,311.0000000000,,,
1.1386718750,18,328.0000000000,,,
1.1406250000,18,314.0000000000,,,
1.1425781250,18,293.0000000000,,,
1.1445312500,18,275.0000000000,,,
1.1464843750,18,267.0000000000,,,
1.1484375000,18,264.0000000000,,,
1.1503906250,18,253.0000000000,,,
1.1523437500,18,266.0000000000,,,
1.1542968750,18,295.0000000000,,,
1.1562500000,18,292.0000000000,,,
1.1582031250,18,283.0000000000,,,
1.1601562500,18,289.0000000000,,,
1.1621093750,18,272.0000000000,,,
1.1640625000,18,247.0000000000,,,
1.1660156250,18,249.0000000000,,,
1.1679687500,18,265.0000000000,,,
1.1699218750,18,264.0000000000,,,
1.1718750000,18,236.0000000000,,,
1.1738281250,18,218.0000000000,,,
1.1757812500,18,199.0000000000,,,
1.1777343750,18,177.0000000000,,,
1.1796875000,18,181.0000000000,,,
1.1816406250,18,192.0000000000,,,
1.1835937500,18,188.0000000000,,,
1.1855468750,18,168.0000000000,,,
1.1875000000,19,118.0000000000,,,
1.1894531250,19,83.0000000000,,,
1.1914062500,19,81.0000000000,,,
1.1933593750,19,93.0000000000,,,
1.1953125000,19,114.0000000000,,,
1.1972656250,19,115.0000000000,,,
1.1992187500,19,102.0000000000,,,
1.2011718750,19,97.0000000000,,,
1.2031250000,19,74.0000000000,,,
1.2050781250,19,58.0000000000,,,
1.2070312500,19,74.0000000000,,,
1.2089843750,19,77.0000000000,,,
1.2109375000,19,52.0000000000,,,
1.2128906250,19,-1.0000000000,,,
1.2148437500,19,-37.0000000000,,,
1.2167968750,19,-35.0000000000,,,
1.2187500000,19,0.0000000000,,,
1.2207031250,19,36.0000000000,,,
1.2226562500,19,20.0000000000,,,
1.2246093750,19,-38.0000000000,,,
1.2265625000,19,-69.0000000000,,,
1.2285156250,19,-41.0000000000,,,
1.2304687500,19,9.0000000000,,,
1.2324218750,19,-2.0000000000,,,
1.2343750000,19,-74.0000000000,,,
1.2363281250,19,-121.0000000000,,,
1.2382812500,19,-130.0000000000,,,
1.2402343750,19,-121.0000000000,,,
1.2421875000,19,-82.0000000000,,,
1.2441406250,19,-45.0000000000,,,
1.2460937500,19,-42.0000000000,,,
1.2480468750,19,-98.0000000000,,,
1.2500000000,20,-164.0000000000,,,
1.2519531250,20,-174.0000000000,33553,1.2519531250,0.0019531250
1.2539062500,20,-174.0000000000,33554,1.2539062500,0.0000000000
1.2558593750,20,-129.0000000000,,,
1.2578125000,20,-86.0000000000,,,
1.2597656250,20,-120.0000000000,,,
1.2617187500,20,-168.0000000000,,,
1.2636718750,20,-198.0000000000,,,
1.2656250000,20,-210.0000000000,,,
1.2675781250,20,-182.0000000000,,,
1.2695312500,20,-138.0000000000,,,
1.2714843750,20,-83.0000000000,,,
1.2734375000,20,-52.0000000000,,,
1.2753906250,20,-35.0000000000,,,
1.2773437500,20,-9.0000000000,,,
1.2792968750,20,19.0000000000,,,
1.2812500000,20,17.0000000000,,,
1.2832031250,20,-17.0000000000,,,
1.2851562500,20,-14.0000000000,,,
1.2871093750,20,-18.0000000000,,,
1.2890625000,20,-58.0000000000,,,
1.2910156250,20,-97.0000000000,,,
1.2929687500,20,-116.0000000000,,,
1.2949218750,20,-78.0000000000,,,
1.2968750000,20,-26.0000000000,,,
1.2988281250,20,-1.0000000000,,,
1.3007812500,20,33.0000000000,,,
1.3027343750,20,86.0000000000,,,
1.3046875000,20,133.0000000000,,,
1.3066406250,20,125.0000000000,,,
1.3085937500,20,88.0000000000,,,
1.3105468750,20,86.0000000000,,,
1.3125000000,21,64.0000000000,,,
1.3144531250,21,58.0000000000,,,
1.3164062500,21,108.0000000000,,,
1.3183593750,21,152.0000000000,,,
1.3203125000,21,149.0000000000,,,
1.3222656250,21,116.0000000000,,,
1.3242187500,21,89.0000000000,,,
1.3261718750,21,123.0000000000,,,
1.3281250000,21,228.0000000000,,,
1.3300781250,21,249.0000000000,,,
1.3320312500,21,203.0000000000,,,
1.3339843750,21,202.0000000000,,,
1.3359375000,21,199.0000000000,,,
1.3378906250,21,172.0000000000,,,
1.3398437500,21,130.0000000000,,,
1.3417968750,21,105.0000000000,,,
1.3437500000,21,92.0000000000,,,
1.3457031250,21,113.0000000000,,,
1.3476562500,21,147.0000000000,,,
1.3496093750,21,138.0000000000,,,
1.3515625000,21,114.0000000000,,,
1.3535156250,21,139.0000000000,,,
1.3554687500,21,124.0000000000,,,
1.3574218750,21,107.0000000000,,,
1.3593750000,21,130.0000000000,,,
1.3613281250,21,153.0000000000,,,
1.3632812500,21,164.0000000000,,,
1.3652343750,21,172.0000000000,,,
1.3671875000,21,178.0000000000,,,
1.3691406250,21,193.0000000000,,,
1.3710937500,21,202.0000000000,,,
1.3730468750,21,204.0000000000,,,
1.3750000000,22,253.0000000000,,,
1.3769531250,22,386.0000000000,,,
1.3789062500,22,437.0000000000,,,
1.3808593750,22,348.0000000000,,,
1.3828125000,22,333.0000000000,,,
1.3847656250,22,356.0000000000,,,
1.3867187500,22,357.0000000000,,,
1.3886718750,22,329.0000000000,,,
1.3906250000,22,237.0000000000,,,
1.3925781250,22,151.0000000000,,,
1.3945312500,22,165.0000000000,,,
1.3964843750,22,274.0000000000,,,
1.3984375000,22,304.0000000000,,,
1.4003906250,22,228.0000000000,,,
1.4023437500,22,180.0000000000,,,
1.4042968750,22,276.0000000000,,,
1.4062500000,22,448.0000000000,,,
1.4082031250,22,539.0000000000,,,
1.4101562500,22,435.0000000000,,,
1.4121093750,22,246.0000000000,,,
1.4140625000,22,162.0000000000,,,
1.4160156250,22,151.0000000000,,,
1.4179687500,22,164.0000000000,,,
1.4199218750,22,179.0000000000,,,
1.4218750000,22,173.0000000000,,,
1.4238281250,22,152.0000000000,,,
1.4257812500,22,130.0000000000,,,
1.4277343750,22,123.0000000000,,,
1.4296875000,22,138.0000000000,,,
1.4316406250,22,153.0000000000,,,
1.4335937500,22,151.0000000000,,,
1.4355468750,22,144.0000000000,,,
1.4375000000,23,107.0000000000,,,
1.4394531250,23,59.0000000000,,,
1.4414062500,23,37.0000000000,,,
1.4433593750,23,39.0000000000,,,
1.4453125000,23,61.0000000000,,,
1.4472656250,23,71.0000000000,,,
1.4492187500,23,66.0000000000,,,
1.4511718750,23,55.0000000000,,,
1.4531250000,23,60.0000000000,,,
1.4550781250,23,90.0000000000,,,
1.4570312500,23,119.0000000000,,,
1.4589843750,23,108.0000000000,,,
1.4609375000,23,91.0000000000,,,
1.4628906250,23,83.0000000000,,,
1.4648437500,23,80.0000000000,,,
1.4667968750,23,88.0000000000,,,
1.4687500000,23,107.0000000000,,,
1.4707031250,23,114.0000000000,,,
1.4726562500,23,118.0000000000,,,
1.4746093750,23,123.0000000000,,,
1.4765625000,23,163.0000000000,,,
1.4785156250,23,225.0000000000,,,
1.4804687500,23,263.0000000000,,,
1.4824218750,23,246.0000000000,,,
1.4843750000,23,201.0000000000,,,
1.4863281250,23,169.0000000000,,,
1.4882812500,23,151.0000000000,,,
1.4902343750,23,124.0000000000,,,
1.4921875000,23,75.0000000000,,,
1.4941406250,23,23.0000000000,,,
1.4960937500,23,-11.0000000000,,,
1.4980468750,23,-38.0000000000,,,
1.5000000000,24,-59.0000000000,,,
1.5019531250,24,-83.0000000000,,,
1.5039062500,24,-116.0000000000,,,
1.5058593750,24,-153.0000000000,,,
1.5078125000,24,-177.0000000000,,,
1.5097656250,24,-184.0000000000,,,
1.5117187500,24,-197.0000000000,,,
1.5136718750,24,-215.0000000000,,,
1.5156250000,24,-229.0000000000,,,
1.5175781250,24,-235.0000000000,,,
1.5195312500,24,-235.0000000000,,,
1.5214843750,24,-236.0000000000,,,
1.5234375000,24,-258.0000000000,,,
1.5253906250,24,-277.0000000000,,,
1.5273437500,24,-280.0000000000,,,
1.5292968750,24,-275.0000000000,,,
1.5312500000,24,-277.0000000000,,,
1.5332031250,24,-281.0000000000,,,
1.5351562500,24,-270.0000000000,,,
1.5371093750,24,-278.0000000000,,,
1.5390625000,24,-298.0000000000,,,
1.5410156250,24,-295.0000000000,,,
1.5429687500,24,-292.0000000000,,,
1.5449218750,24,-290.0000000000,,,
1.5468750000,24,-280.0000000000,,,
1.5488281250,24,-270.0000000000,,,
1.5507812500,24,-260.0000000000,,,
1.5527343750,24,-249.0000000000,,,
1.5546875000,24,-249.0000000000,,,
1.5566406250,24,-244.0000000000,,,
1.5585937500,24,-249.0000000000,,,
1.5605468750,24,-275.0000000000,,,
1.5625000000,25,-280.0000000000,,,
1.5644531250,25,-280.0000000000,,,
1.5664062500,25,-290.0000000000,,,
1.5683593750,25,-275.0000000000,,,
1.5703125000,25,-242.0000000000,,,
1.5722656250,25,-209.0000000000,,,
1.5742187500,25,-185.0000000000,,,
1.5761718750,25,-167.0000000000,,,
1.5781250000,25,-146.0000000000,,,
1.5800781250,25,-121.0000000000,,,
1.5820312500,25,-105.0000000000,,,
1.5839843750,25,-92.0000000000,,,
1.5859375000,25,-82.0000000000,,,
1.5878906250,25,-83.0000000000,,,
1.5898437500,25,-84.0000000000,,,
1.5917968750,25,-88.0000000000,,,
1.5937500000,25,-100.0000000000,,,
1.5957031250,25,-103.0000000000,,,
1.5976562500,25,-104.0000000000,,,
1.5996093750,25,-106.0000000000,,,
1.6015625000,25,-92.0000000000,,,
1.6035156250,25,-74.0000000000,,,
1.6054687500,25,-41.0000000000,,,
1.6074218750,25,8.0000000000,,,
1.6093750000,25,36.0000000000,,,
1.6113281250,25,27.0000000000,,,
1.6132812500,25,12.0000000000,,,
1.6152343750,25,1.0000000000,,,
1.6171875000,25,1.0000000000,,,
1.6191406250,25,11.0000000000,,,
1.6210937500,25,8.0000000000,,,
1.6230468750,25,-5.0000000000,,,
1.6250000000,26,-3.0000000000,,,
1.6269531250,26,28.0000000000,,,
1.6289062500,26,70.0000000000,,,
1.6308593750,26,89.0000000000,,,
1.6328125000,26,87.0000000000,,,
1.6347656250,26,68.0000000000,,,
1.6367187500,26,48.0000000000,,,
1.6386718750,26,48.0000000000,,,
1.6406250000,26,55.0000000000,,,
1.6425781250,26,57.0000000000,,,
1.6445312500,26,48.0000000000,,,
1.6464843750,26,36.0000000000,,,
1.6484375000,26,66.0000000000,,,
1.6503906250,26,135.0000000000,,,
1.6523437500,26,161.0000000000,,,
1.6542968750,26,138.0000000000,,,
1.6562500000,26,99.0000000000,,,
1.6582031250,26,64.0000000000,,,
1.6601562500,26,36.0000000000,,,
1.6621093750,26,-7.0000000000,,,
1.6640625000,26,-86.0000000000,,,
1.6660156250,26,-74.0000000000,,,
1.6679687500,26,54.0000000000,,,
1.6699218750,26,168.0000000000,,,
1.6718750000,26,168.0000000000,,,
1.6738281250,26,124.0000000000,,,
1.6757812500,26,109.0000000000,,,
1.6777343750,26,105.0000000000,,,
1.6796875000,26,112.0000000000,,,
1.6816406250,26,125.0000000000,,,
1.6835937500,26,138.0000000000,,,
1.6855468750,26,114.0000000000,,,
1.6875000000,27,59.0000000000,,,
1.6894531250,27,39.0000000000,,,
1.6914062500,27,80.0000000000,,,
1.6933593750,27,155.0000000000,,,
1.6953125000,27,224.0000000000,,,
1.6972656250,27,248.0000000000,,,
1.6992187500,27,205.0000000000,,,
1.7011718750,27,123.0000000000,,,
1.7031250000,27,55.0000000000,,,
1.7050781250,27,66.0000000000,,,
1.7070312500,27,152.0000000000,,,
1.7089843750,27,209.0000000000,,,
1.7109375000,27,180.0000000000,,,
1.7128906250,27,128.0000000000,,,
1.7148437500,27,92.0000000000,,,
1.7167968750,27,83.0000000000,,,
1.7187500000,27,88.0000000000,,,
1.7207031250,27,80.0000000000,,,
1.7226562500,27,41.0000000000,,,
1.7246093750,27,-3.0000000000,,,
1.7265625000,27,-20.0000000000,,,
1.7285156250,27,-8.0000000000,,,
1.7304687500,27,8.0000000000,,,
1.7324218750,27,49.0000000000,,,
1.7343750000,27,76.0000000000,,,
1.7363281250,27,58.0000000000,,,
1.7382812500,27,20.0000000000,,,
1.7402343750,27,-18.0000000000,,,
1.7421875000,27,-38.0000000000,,,
1.7441406250,27,-25.0000000000,,,
1.7460937500,27,-8.0000000000,,,
1.7480468750,27,-17.0000000000,,,
1.7500000000,28,-17.0000000000,,,
1.7519531250,28,16.0000000000,,,
1.7539062500,28,24.0000000000,,,
1.7558593750,28,-28.0000000000,,,
1.7578125000,28,-91.0000000000,,,
1.7597656250,28,-67.0000000000,,,
1.7617187500,28,19.0000000000,,,
1.7636718750,28,35.0000000000,,,
1.7656250000,28,-9.0000000000,,,
1.7675781250,28,3.0000000000,,,
1.7695312500,28,58.0000000000,,,
1.7714843750,28,86.0000000000,,,
1.7734375000,28,81.0000000000,,,
1.7753906250,28,68.0000000000,,,
1.7773437500,28,44.0000000000,,,
1.7792968750,28,43.0000000000,,,
1.7812500000,28,108.0000000000,,,
1.7832031250,28,124.0000000000,,,
1.7851562500,28,65.0000000000,,,
1.7871093750,28,37.0000000000,,,
1.7890625000,28,80.0000000000,,,
1.7910156250,28,132.0000000000,,,
1.7929687500,28,167.0000000000,,,
1.7949218750,28,172.0000000000,,,
1.7968750000,28,149.0000000000,,,
1.7988281250,28,120.0000000000,,,
1.8007812500,28,109.0000000000,,,
1.8027343750,28,114.0000000000,,,
1.8046875000,28,132.0000000000,,,
1.8066406250,28,153.0000000000,,,
1.8085937500,28,139.0000000000,,,
1.8105468750,28,92.0000000000,,,
1.8125000000,29,53.0000000000,,,
1.8144531250,29,43.0000000000,,,
1.8164062500,29,56.0000000000,,,
1.8183593750,29,69.0000000000,,,
1.8203125000,29,80.0000000000,,,
1.8222656250,29,96.0000000000,,,
1.8242187500,29,97.0000000000,,,
1.8261718750,29,89.0000000000,,,
1.8281250000,29,85.0000000000,,,
1.8300781250,29,86.0000000000,,,
1.8320312500,29,97.0000000000,,,
1.8339843750,29,102.0000000000,,,
1.8359375000,29,112.0000000000,,,
1.8378906250,29,137.0000000000,,,
1.8398437500,29,171.0000000000,,,
1.8417968750,29,197.0000000000,,,
1.8437500000,29,172.0000000000,,,
1.8457031250,29,122.0000000000,,,
1.8476562500,29,116.0000000000,,,
1.8496093750,29,134.0000000000,,,
1.8515625000,29,140.0000000000,,,
1.8535156250,29,131.0000000000,,,
1.8554687500,29,132.0000000000,,,
1.8574218750,29,139.0000000000,,,
1.8593750000,29,119.0000000000,,,
1.8613281250,29,113.0000000000,,,
1.8632812500,29,134.0000000000,,,
1.8652343750,29,131.0000000000,,,
1.8671875000,29,120.0000000000,,,
1.8691406250,29,122.0000000000,,,
1.8710937500,29,120.0000000000,,,
1.8730468750,29,112.0000000000,,,
1.8750000000,30,104.0000000000,,,
1.8769531250,30,113.0000000000,,,
1.8789062500,30,123.0000000000,,,
1.8808593750,30,114.0000000000,,,
1.8828125000,30,114.0000000000,,,
1.8847656250,30,137.0000000000,,,
1.8867187500,30,169.0000000000,,,
1.8886718750,30,185.0000000000,,,
1.8906250000,30,177.0000000000,,,
1.8925781250,30,163.0000000000,,,
1.8945312500,30,147.0000000000,,,
1.8964843750,30,122.0000000000,,,
1.8984375000,30,115.0000000000,,,
1.9003906250,30,119.0000000000,,,
1.9023437500,30,107.0000000000,,,
1.9042968750,30,96.0000000000,,,
1.9062500000,30,91.0000000000,,,
1.9082031250,30,86.0000000000,,,
1.9101562500,30,74.0000000000,,,
1.9121093750,30,70.0000000000,,,
1.9140625000,30,74.0000000000,,,
1.9160156250,30,67.0000000000,,,
1.9179687500,30,44.0000000000,,,
1.9199218750,30,29.0000000000,,,
1.9218750000,30,4.0000000000,,,
1.9238281250,30,-24.0000000000,,,
1.9257812500,30,-35.0000000000,,,
1.9277343750,30,-7.0000000000,,,
1.9296875000,30,21.0000000000,,,
1.9316406250,30,25.0000000000,,,
1.9335937500,30,13.0000000000,,,
1.9355468750,30,12.0000000000,,,
1.9375000000,31,-1.0000000000,,,
1.9394531250,31,-26.0000000000,,,
1.9414062500,31,7.0000000000,33552,1.9414062500,0.0000000000
1.9433593750,31,18.0000000000,,,
1.9453125000,31,10.0000000000,,,
1.9472656250,31,1.0000000000,,,
1.9492187500,31,-3.0000000000,,,
1.9511718750,31,22.0000000000,,,
1.9531250000,31,53.0000000000,,,
1.9550781250,31,32.0000000000,,,
1.9570312500,31,-19.0000000000,,,
1.9589843750,31,-42.0000000000,,,
1.9609375000,31,-33.0000000000,,,
1.9628906250,31,-17.0000000000,,,
1.9648437500,31,-11.0000000000,,,
1.9667968750,31,-3.0000000000,,,
1.9687500000,31,10.0000000000,,,
1.9707031250,31,33.0000000000,,,
1.9726562500,31,57.0000000000,,,
1.9746093750,31,59.0000000000,,,
1.9765625000,31,29.0000000000,,,
1.9785156250,31,28.0000000000,,,
1.9804687500,31,52.0000000000,,,
1.9824218750,31,55.0000000000,,,
1.9843750000,31,41.0000000000,,,
1.9863281250,31,26.0000000000,,,
1.9882812500,31,17.0000000000,,,
1.9902343750,31,18.0000000000,,,
1.9921875000,31,33.0000000000,,,
1.9941406250,31,37.0000000000,,,
1.9960937500,31,49.0000000000,,,
1.9980468750,31,74.0000000000,,,
2.0000000000,32,88.0000000000,,,
2.0019531250,32,68.0000000000,33552,2.0019531250,0.0000000000
2.0039062500,32,51.0000000000,,,
2.0058593750,32,48.0000000000,,,
2.0078125000,32,53.0000000000,,,
2.0097656250,32,52.0000000000,,,
2.0117187500,32,35.0000000000,,,
2.0136718750,32,5.0000000000,,,
2.0156250000,32,-21.0000000000,,,
2.0175781250,32,-17.0000000000,,,
2.0195312500,32,-6.0000000000,,,
2.0214843750,32,8.0000000000,,,
2.0234375000,32,21.0000000000,,,
2.0253906250,32,35.0000000000,,,
2.0273437500,32,58.0000000000,,,
2.0292968750,32,56.0000000000,,,
2.0312500000,32,37.0000000000,,,
2.0332031250,32,41.0000000000,,,
2.0351562500,32,64.0000000000,,,
2.0371093750,32,75.0000000000,,,
2.0390625000,32,87.0000000000,,,
2.0410156250,32,101.0000000000,,,
2.0429687500,32,76.0000000000,,,
2.0449218750,32,41.0000000000,,,
2.0468750000,32,22.0000000000,,,
2.0488281250,32,6.0000000000,,,
2.0507812500,32,2.0000000000,,,
2.0527343750,32,9.0000000000,,,
2.0546875000,32,13.0000000000,,,
2.0566406250,32,4.0000000000,,,
2.0585937500,32,-19.0000000000,,,
2.0605468750,32,-14.0000000000,,,
2.0625000000,33,1.0000000000,,,
2.0644531250,33,6.0000000000,,,
2.0664062500,33,10.0000000000,,,
2.0683593750,33,38.0000000000,,,
2.0703125000,33,53.0000000000,,,
2.0722656250,33,50.0000000000,,,
2.0742187500,33,54.0000000000,,,
2.0761718750,33,72.0000000000,,,
2.0781250000,33,87.0000000000,,,
2.0800781250,33,85.0000000000,,,
2.0820312500,33,75.0000000000,,,
2.0839843750,33,59.0000000000,,,
2.0859375000,33,67.0000000000,,,
2.0878906250,33,107.0000000000,,,
2.0898437500,33,138.0000000000,,,
2.0917968750,33,132.0000000000,,,
2.0937500000,33,107.0000000000,,,
2.0957031250,33,98.0000000000,,,
2.0976562500,33,102.0000000000,,,
2.0996093750,33,109.0000000000,,,
2.1015625000,33,102.0000000000,,,
2.1035156250,33,100.0000000000,,,
2.1054687500,33,106.0000000000,,,
2.1074218750,33,96.0000000000,,,
2.1093750000,33,84.0000000000,,,
2.1113281250,33,108.0000000000,,,
2.1132812500,33,128.0000000000,,,
2.1152343750,33,117.0000000000,,,
2.1171875000,33,107.0000000000,,,
2.1191406250,33,92.0000000000,,,
2.1210937500,33,74.0000000000,,,
2.1230468750,33,50.0000000000,,,
2.1250000000,34,25.0000000000,,,
2.1269531250,34,4.0000000000,,,
2.1289062500,34,-7.0000000000,,,
2.1308593750,34,-7.0000000000,,,
2.1328125000,34,0.0000000000,,,
2.1347656250,34,-3.0000000000,,,
2.1367187500,34,6.0000000000,,,
2.1386718750,34,1.0000000000,,,
2.1406250000,34,-20.0000000000,,,
2.1425781250,34,-40.0000000000,,,
2.1445312500,34,-55.0000000000,,,
2.1464843750,34,-43.0000000000,,,
2.1484375000,34,-36.0000000000,,,
2.1503906250,34,-38.0000000000,,,
2.1523437500,34,-18.0000000000,,,
2.1542968750,34,23.0000000000,,,
2.1562500000,34,27.0000000000,,,
2.1582031250,34,10.0000000000,,,
2.1601562500,34,3.0000000000,,,
2.1621093750,34,11.0000000000,,,
2.1640625000,34,-5.0000000000,,,
2.1660156250,34,-40.0000000000,,,
2.1679687500,34,-61.0000000000,,,
2.1699218750,34,-85.0000000000,,,
2.1718750000,34,-119.0000000000,,,
2.1738281250,34,-129.0000000000,,,
2.1757812500,34,-86.0000000000,,,
2.1777343750,34,-21.0000000000,,,
2.1796875000,34,26.0000000000,,,
2.1816406250,34,25.0000000000,,,
2.1835937500,34,-26.0000000000,,,
2.1855468750,34,-58.0000000000,,,
2.1875000000,35,-53.0000000000,,,
2.1894531250,35,-33.0000000000,,,
2.1914062500,35,-7.0000000000,,,
2.1933593750,35,-2.0000000000,,,
2.1953125000,35,-35.0000000000,,,
2.1972656250,35,-65.0000000000,,,
2.1992187500,35,-74.0000000000,,,
2.2011718750,35,-70.0000000000,,,
2.2031250000,35,-51.0000000000,,,
2.2050781250,35,-33.0000000000,,,
2.2070312500,35,-18.0000000000,,,
2.2089843750,35,-5.0000000000,,,
2.2109375000,35,-22.0000000000,,,
2.2128906250,35,-56.0000000000,,,
2.2148437500,35,-82.0000000000,,,
2.2167968750,35,-84.0000000000,,,
2.2187500000,35,-67.0000000000,,,
2.2207031250,35,-54.0000000000,,,
2.2226562500,35,-61.0000000000,,,
2.2246093750,35,-85.0000000000,,,
2.2265625000,35,-88.0000000000,,,
2.2285156250,35,-83.0000000000,,,
2.2304687500,35,-102.0000000000,,,
2.2324218750,35,-134.0000000000,,,
2.2343750000,35,-132.0000000000,,,
2.2363281250,35,-92.0000000000,,,
2.2382812500,35,-73.0000000000,,,
2.2402343750,35,-71.0000000000,,,
2.2421875000,35,-42.0000000000,,,
2.2441406250,35,11.0000000000,,,
2.2460937500,35,108.0000000000,,,
2.2480468750,35,212.0000000000,,,
2.2500000000,36,202.0000000000,,,
2.2519531250,36,104.0000000000,,,
2.2539062500,36,66.0000000000,,,
2.2558593750,36,56.0000000000,,,
2.2578125000,36,35.0000000000,,,
2.2597656250,36,-2.0000000000,,,
2.2617187500,36,-35.0000000000,,,
2.2636718750,36,-35.0000000000,,,
2.2656250000,36,1.0000000000,,,
2.2675781250,36,60.0000000000,,,
2.2695312500,36,176.0000000000,,,
2.2714843750,36,220.0000000000,,,
2.2734375000,36,129.0000000000,,,
2.2753906250,36,51.0000000000,,,
2.2773437500,36,68.0000000000,,,
2.2792968750,36,68.0000000000,,,
2.2812500000,36,3.0000000000,,,
2.2832031250,36,-24.0000000000,,,
2.2851562500,36,-6.0000000000,,,
2.2871093750,36,25.0000000000,,,
2.2890625000,36,27.0000000000,,,
2.2910156250,36,41.0000000000,,,
2.2929687500,36,83.0000000000,,,
2.2949218750,36,67.0000000000,,,
2.2968750000,36,28.0000000000,,,
2.2988281250,36,16.0000000000,,,
2.3007812500,36,28.0000000000,,,
2.3027343750,36,48.0000000000,,,
2.3046875000,36,53.0000000000,,,
2.3066406250,36,50.0000000000,,,
2.3085937500,36,68.0000000000,,,
2.3105468750,36,117.0000000000,,,
2.3125000000,37,150.0000000000,,,
2.3144531250,37,161.0000000000,,,
2.3164062500,37,161.0000000000,,,
2.3183593750,37,136.0000000000,,,
2.3203125000,37,116.0000000000,,,
2.3222656250,37,100.0000000000,,,
2.3242187500,37,91.0000000000,,,
2.3261718750,37,103.0000000000,,,
2.3281250000,37,117.0000000000,,,
2.3300781250,37,125.0000000000,,,
2.3320312500,37,120.0000000000,,,
2.3339843750,37,112.0000000000,,,
2.3359375000,37,106.0000000000,,,
2.3378906250,37,112.0000000000,,,
2.3398437500,37,102.0000000000,,,
2.3417968750,37,82.0000000000,,,
2.3437500000,37,67.0000000000,,,
2.3457031250,37,64.0000000000,,,
2.3476562500,37,72.0000000000,,,
2.3496093750,37,90.0000000000,,,
2.3515625000,37,131.0000000000,,,
2.3535156250,37,167.0000000000,,,
2.3554687500,37,168.0000000000,,,
2.3574218750,37,163.0000000000,,,
2.3593750000,37,153.0000000000,,,
2.3613281250,37,144.0000000000,,,
2.3632812500,37,128.0000000000,,,
2.3652343750,37,108.0000000000,,,
2.3671875000,37,96.0000000000,,,
2.3691406250,37,97.0000000000,,,
2.3710937500,37,82.0000000000,,,
2.3730468750,37,52.0000000000,,,
2.3750000000,38,60.0000000000,33552,2.3750000000,0.0000000000
2.3769531250,38,58.0000000000,33552,2.3750000000,0.0000000000
2.3789062500,38,35.0000000000,,,
2.3808593750,38,6.0000000000,,,
2.3828125000,38,-2.0000000000,,,
2.3847656250,38,24.0000000000,,,
2.3867187500,38,44.0000000000,,,
2.3886718750,38,4.0000000000,,,
2.3906250000,38,-25.0000000000,,,
2.3925781250,38,10.0000000000,,,
2.3945312500,38,50.0000000000,,,
2.3964843750,38,40.0000000000,,,
2.3984375000,38,29.0000000000,,,
2.4003906250,38,33.0000000000,,,
2.4023437500,38,24.0000000000,,,
2.4042968750,38,11.0000000000,,,
2.4062500000,38,7.0000000000,,,
2.4082031250,38,1.0000000000,,,
2.4101562500,38,-6.0000000000,,,
2.4121093750,38,-5.0000000000,,,
2.4140625000,38,4.0000000000,,,
2.4160156250,38,23.0000000000,,,
2.4179687500,38,34.0000000000,,,
2.4199218750,38,24.0000000000,,,
2.4218750000,38,18.0000000000,,,
2.4238281250,38,24.0000000000,,,
2.4257812500,38,44.0000000000,,,
2.4277343750,38,58.0000000000,,,
2.4296875000,38,60.0000000000,,,
2.4316406250,38,33.0000000000,,,
2.4335937500,38,8.0000000000,,,
2.4355468750,38,10.0000000000,,,
2.4375000000,39,25.0000000000,,,
2.4394531250,39,49.0000000000,,,
2.4414062500,39,64.0000000000,,,
2.4433593750,39,61.0000000000,,,
2.4453125000,39,66.0000000000,,,
2.4472656250,39,72.0000000000,,,
2.4492187500,39,83.0000000000,,,
2.4511718750,39,81.0000000000,,,
2.4531250000,39,83.0000000000,,,
2.4550781250,39,90.0000000000,,,
2.4570312500,39,74.0000000000,,,
2.4589843750,39,54.0000000000,,,
2.4609375000,39,53.0000000000,,,
2.4628906250,39,54.0000000000,,,
2.4648437500,39,50.0000000000,,,
2.4667968750,39,45.0000000000,,,
2.4687500000,39,45.0000000000,,,
2.4707031250,39,42.0000000000,,,
2.4726562500,39,57.0000000000,,,
2.4746093750,39,84.0000000000,,,
2.4765625000,39,100.0000000000,,,
2.4785156250,39,102.0000000000,,,
2.4804687500,39,96.0000000000,,,
2.4824218750,39,83.0000000000,,,
2.4843750000,39,76.0000000000,,,
2.4863281250,39,76.0000000000,,,
2.4882812500,39,55.0000000000,,,
2.4902343750,39,29.0000000000,,,
2.4921875000,39,48.0000000000,,,
2.4941406250,39,115.0000000000,,,
2.4960937500,39,163.0000000000,,,
2.4980468750,39,153.0000000000,,,
2.5000000000,40,122.0000000000,,,
2.5019531250,40,99.0000000000,,,
2.5039062500,40,107.0000000000,,,
2.5058593750,40,145.0000000000,,,
2.5078125000,40,166.0000000000,,,
2.5097656250,40,137.0000000000,,,
2.5117187500,40,85.0000000000,,,
2.5136718750,40,54.0000000000,,,
2.5156250000,40,68.0000000000,,,
2.5175781250,40,101.0000000000,,,
2.5195312500,40,108.0000000000,,,
2.5214843750,40,98.0000000000,,,
2.5234375000,40,76.0000000000,,,
2.5253906250,40,45.0000000000,,,
2.5273437500,40,36.0000000000,,,
2.5292968750,40,48.0000000000,,,
2.5312500000,40,60.0000000000,,,
2.5332031250,40,73.0000000000,,,
2.5351562500,40,66.0000000000,,,
2.5371093750,40,25.0000000000,,,
2.5390625000,40,-8.0000000000,,,
2.5410156250,40,-19.0000000000,,,
2.5429687500,40,-25.0000000000,,,
2.5449218750,40,-25.0000000000,,,
2.5468750000,40,-22.0000000000,,,
2.5488281250,40,-38.0000000000,,,
2.5507812500,40,-59.0000000000,,,
2.5527343750,40,-52.0000000000,,,
2.5546875000,40,-46.0000000000,,,
2.5566406250,40,-73.0000000000,,,
2.5585937500,40,-114.0000000000,,,
2.5605468750,40,-140.0000000000,,,
2.5625000000,41,-141.0000000000,,,
2.5644531250,41,-135.0000000000,,,
2.5664062500,41,-130.0000000000,,,
2.5683593750,41,-117.0000000000,,,
2.5703125000,41,-77.0000000000,,,
2.5722656250,41,-45.0000000000,,,
2.5742187500,41,-54.0000000000,,,
2.5761718750,41,-69.0000000000,,,
2.5781250000,41,-55.0000000000,,,
2.5800781250,41,-28.0000000000,,,
2.5820312500,41,-33.0000000000,,,
2.5839843750,41,-59.0000000000,,,
2.5859375000,41,-72.0000000000,,,
2.5878906250,41,-59.0000000000,,,
2.5898437500,41,-30.0000000000,,,
2.5917968750,41,3.0000000000,,,
2.5937500000,41,23.0000000000,,,
2.5957031250,41,27.0000000000,,,
2.5976562500,41,9.0000000000,,,
2.5996093750,41,10.0000000000,,,
2.6015625000,41,35.0000000000,,,
2.6035156250,41,53.0000000000,,,
2.6054687500,41,55.0000000000,,,
2.6074218750,41,32.0000000000,,,
2.6093750000,41,-9.0000000000,,,
2.6113281250,41,-11.0000000000,,,
2.6132812500,41,42.0000000000,,,
2.6152343750,41,68.0000000000,,,
2.6171875000,41,44.0000000000,,,
2.6191406250,41,34.0000000000,,,
2.6210937500,41,64.0000000000,,,
2.6230468750,41,106.0000000000,,,
2.6250000000,42,156.0000000000,,,
2.6269531250,42,198.0000000000,,,
2.6289062500,42,196.0000000000,,,
2.6308593750,42,172.0000000000,,,
2.6328125000,42,163.0000000000,,,
2.6347656250,42,164.0000000000,,,
2.6367187500,42,179.0000000000,,,
2.6386718750,42,177.0000000000,,,
2.6406250000,42,167.0000000000,,,
2.6425781250,42,188.0000000000,,,
2.6445312500,42,220.0000000000,,,
2.6464843750,42,248.0000000000,,,
2.6484375000,42,248.0000000000,,,
2.6503906250,42,244.0000000000,,,
2.6523437500,42,261.0000000000,,,
2.6542968750,42,272.0000000000,,,
2.6562500000,42,278.0000000000,,,
2.6582031250,42,281.0000000000,,,
2.6601562500,42,278.0000000000,,,
2.6621093750,42,275.0000000000,,,
2.6640625000,42,274.0000000000,,,
2.6660156250,42,281.0000000000,,,
2.6679687500,42,292.0000000000,,,
2.6699218750,42,290.0000000000,,,
2.6718750000,42,290.0000000000,,,
2.6738281250,42,284.0000000000,,,
2.6757812500,42,257.0000000000,,,
2.6777343750,42,220.0000000000,,,
2.6796875000,42,201.0000000000,,,
2.6816406250,42,187.0000000000,,,
2.6835937500,42,160.0000000000,,,
2.6855468750,42,129.0000000000,,,
2.6875000000,43,130.0000000000,,,
2.6894531250,43,138.0000000000,,,
2.6914062500,43,136.0000000000,,,
2.6933593750,43,122.0000000000,,,
2.6953125000,43,117.0000000000,,,
2.6972656250,43,122.0000000000,,,
2.6992187500,43,139.0000000000,,,
2.7011718750,43,140.0000000000,,,
2.7031250000,43,103.0000000000,,,
2.7050781250,43,64.0000000000,,,
2.7070312500,43,54.0000000000,,,
2.7089843750,43,43.0000000000,,,
2.7109375000,43,28.0000000000,,,
2.7128906250,43,32.0000000000,,,
2.7148437500,43,24.0000000000,,,
2.7167968750,43,4.0000000000,,,
2.7187500000,43,4.0000000000,,,
2.7207031250,43,28.0000000000,,,
2.7226562500,43,53.0000000000,,,
2.7246093750,43,50.0000000000,,,
2.7265625000,43,10.0000000000,,,
2.7285156250,43,-27.0000000000,,,
2.7304687500,43,-18.0000000000,,,
2.7324218750,43,23.0000000000,,,
2.7343750000,43,64.0000000000,,,
2.7363281250,43,72.0000000000,,,
2.7382812500,43,57.0000000000,,,
2.7402343750,43,50.0000000000,,,
2.7421875000,43,57.0000000000,,,
2.7441406250,43,50.0000000000,,,
2.7460937500,43,23.0000000000,,,
2.7480468750,43,17.0000000000,,,
2.7500000000,44,26.0000000000,,,
2.7519531250,44,13.0000000000,,,
2.7539062500,44,-9.0000000000,,,
2.7558593750,44,-20.0000000000,,,
2.7578125000,44,-1.0000000000,,,
2.7597656250,44,24.0000000000,,,
2.7617187500,44,34.0000000000,,,
2.7636718750,44,26.0000000000,,,
2.7656250000,44,18.0000000000,,,
2.7675781250,44,-1.0000000000,,,
2.7695312500,44,-19.0000000000,,,
2.7714843750,44,-13.0000000000,,,
2.7734375000,44,2.0000000000,,,
2.7753906250,44,25.0000000000,,,
2.7773437500,44,29.0000000000,,,
2.7792968750,44,19.0000000000,,,
2.7812500000,44,22.0000000000,,,
2.7832031250,44,33.0000000000,,,
2.7851562500,44,29.0000000000,,,
2.7871093750,44,25.0000000000,,,
2.7890625000,44,26.0000000000,,,
2.7910156250,44,38.0000000000,,,
2.7929687500,44,43.0000000000,,,
2.7949218750,44,44.0000000000,,,
2.7968750000,44,44.0000000000,,,
2.7988281250,44,52.0000000000,,,
2.8007812500,44,73.0000000000,,,
2.8027343750,44,85.0000000000,,,
2.8046875000,44,66.0000000000,,,
2.8066406250,44,38.0000000000,,,
2.8085937500,44,28.0000000000,,,
2.8105468750,44,43.0000000000,,,
2.8125000000,45,66.0000000000,,,
2.8144531250,45,68.0000000000,,,
2.8164062500,45,52.0000000000,,,
2.8183593750,45,54.0000000000,,,
2.8203125000,45,68.0000000000,,,
2.8222656250,45,66.0000000000,,,
2.8242187500,45,38.0000000000,,,
2.8261718750,45,-1.0000000000,,,
2.8281250000,45,1.0000000000,,,
2.8300781250,45,55.0000000000,,,
2.8320312500,45,99.0000000000,,,
2.8339843750,45,96.0000000000,,,
2.8359375000,45,65.0000000000,,,
2.8378906250,45,33.0000000000,,,
2.8398437500,45,32.0000000000,,,
2.8417968750,45,73.0000000000,,,
2.8437500000,45,122.0000000000,,,
2.8457031250,45,146.0000000000,,,
2.8476562500,45,115.0000000000,,,
2.8496093750,45,75.0000000000,,,
2.8515625000,45,85.0000000000,,,
2.8535156250,45,119.0000000000,,,
2.8554687500,45,116.0000000000,,,
2.8574218750,45,77.0000000000,,,
2.8593750000,45,41.0000000000,,,
2.8613281250,45,29.0000000000,,,
2.8632812500,45,35.0000000000,,,
2.8652343750,45,19.0000000000,,,
2.8671875000,45,-9.0000000000,,,
2.8691406250,45,-18.0000000000,,,
2.8710937500,45,9.0000000000,,,
2.8730468750,45,35.0000000000,,,
2.8750000000,46,26.0000000000,,,
2.8769531250,46,16.0000000000,,,
2.8789062500,46,24.0000000000,,,
2.8808593750,46,12.0000000000,,,
2.8828125000,46,-19.0000000000,,,
2.8847656250,46,-34.0000000000,,,
2.8867187500,46,-36.0000000000,,,
2.8886718750,46,-36.0000000000,,,
2.8906250000,46,-38.0000000000,,,
2.8925781250,46,-57.0000000000,,,
2.8945312500,46,-76.0000000000,,,
2.8964843750,46,-84.0000000000,,,
2.8984375000,46,-78.0000000000,,,
2.9003906250,46,-78.0000000000,,,
2.9023437500,46,-94.0000000000,,,
2.9042968750,46,-102.0000000000,,,
2.9062500000,46,-76.0000000000,,,
2.9082031250,46,-40.0000000000,,,
2.9101562500,46,-28.0000000000,,,
2.9121093750,46,-24.0000000000,,,
2.9140625000,46,-29.0000000000,,,
2.9160156250,46,-67.0000000000,,,
2.9179687500,46,-99.0000000000,,,
2.9199218750,46,-98.0000000000,,,
2.9218750000,46,-83.0000000000,,,
2.9238281250,46,-81.0000000000,,,
2.9257812500,46,-74.0000000000,,,
2.9277343750,46,-52.0000000000,,,
2.9296875000,46,-3.0000000000,,,
2.9316406250,46,26.0000000000,,,
2.9335937500,46,34.0000000000,,,
2.9355468750,46,39.0000000000,,,
2.9375000000,47,34.0000000000,,,
2.9394531250,47,-8.0000000000,,,
2.9414062500,47,-41.0000000000,,,
2.9433593750,47,-41.0000000000,,,
2.9453125000,47,-33.0000000000,,,
2.9472656250,47,-38.0000000000,,,
2.9492187500,47,-61.0000000000,,,
2.9511718750,47,-58.0000000000,,,
2.9531250000,47,-45.0000000000,,,
2.9550781250,47,-51.0000000000,,,
2.9570312500,47,-39.0000000000,,,
2.9589843750,47,-20.0000000000,,,
2.9609375000,47,-29.0000000000,,,
2.9628906250,47,-43.0000000000,,,
2.9648437500,47,-45.0000000000,,,
2.9667968750,47,-43.0000000000,,,
2.9687500000,47,-29.0000000000,,,
2.9707031250,47,-7.0000000000,,,
2.9726562500,47,-17.0000000000,,,
2.9746093750,47,-39.0000000000,,,
2.9765625000,47,-76.0000000000,,,
2.9785156250,47,-98.0000000000,,,
2.9804687500,47,-38.0000000000,,,
2.9824218750,47,41.0000000000,,,
2.9843750000,47,34.0000000000,,,
2.9863281250,47,-9.0000000000,,,
2.9882812500,47,-13.0000000000,,,
2.9902343750,47,4.0000000000,,,
2.9921875000,47,33.0000000000,,,
2.9941406250,47,35.0000000000,,,
2.9960937500,47,22.0000000000,,,
2.9980468750,47,5.0000000000,,,
3.0000000000,48,-21.0000000000,,,
3.0019531250,48,-38.0000000000,,,
3.0039062500,48,-11.0000000000,,,
3.0058593750,48,20.0000000000,,,
3.0078125000,48,21.0000000000,,,
3.0097656250,48,-14.0000000000,,,
3.0117187500,48,-17.0000000000,,,
3.0136718750,48,-25.0000000000,,,
3.0156250000,48,-42.0000000000,,,
3.0175781250,48,1.0000000000,,,
3.0195312500,48,26.0000000000,,,
3.0214843750,48,-17.0000000000,,,
3.0234375000,48,-26.0000000000,,,
3.0253906250,48,-14.0000000000,,,
3.0273437500,48,-44.0000000000,,,
3.0292968750,48,-81.0000000000,,,
3.0312500000,48,-91.0000000000,,,
3.0332031250,48,-114.0000000000,,,
3.0351562500,48,-123.0000000000,,,
3.0371093750,48,-130.0000000000,,,
3.0390625000,48,-125.0000000000,,,
3.0410156250,48,-105.0000000000,,,
3.0429687500,48,-58.0000000000,,,
3.0449218750,48,-30.0000000000,,,
3.0468750000,48,-66.0000000000,,,
3.0488281250,48,-99.0000000000,,,
3.0507812500,48,-65.0000000000,,,
3.0527343750,48,-21.0000000000,,,
3.0546875000,48,-42.0000000000,,,
3.0566406250,48,-113.0000000000,,,
3.0585937500,48,-162.0000000000,,,
3.0605468750,48,-152.0000000000,,,
3.0625000000,49,-68.0000000000,,,
3.0644531250,49,-9.0000000000,,,
3.0664062500,49,-24.0000000000,,,
3.0683593750,49,-70.0000000000,,,
3.0703125000,49,-71.0000000000,,,
3.0722656250,49,-46.0000000000,,,
3.0742187500,49,-11.0000000000,,,
3.0761718750,49,-2.0000000000,,,
3.0781250000,49,-29.0000000000,,,
3.0800781250,49,-30.0000000000,,,
3.0820312500,49,-9.0000000000,,,
3.0839843750,49,10.0000000000,,,
3.0859375000,49,37.0000000000,,,
3.0878906250,49,68.0000000000,,,
3.0898437500,49,116.0000000000,,,
3.0917968750,49,176.0000000000,,,
3.0937500000,49,177.0000000000,,,
3.0957031250,49,144.0000000000,,,
3.0976562500,49,115.0000000000,,,
3.0996093750,49,91.0000000000,,,
3.1015625000,49,71.0000000000,,,
3.1035156250,49,53.0000000000,,,
3.1054687500,49,58.0000000000,,,
3.1074218750,49,74.0000000000,,,
3.1093750000,49,81.0000000000,,,
3.1113281250,49,84.0000000000,,,
3.1132812500,49,96.0000000000,,,
3.1152343750,49,98.0000000000,,,
3.1171875000,49,49.0000000000,,,
3.1191406250,49,48.0000000000,,,
3.1210937500,49,81.0000000000,,,
3.1230468750,49,96.0000000000,,,
3.1250000000,50,80.0000000000,,,
3.1269531250,50,84.0000000000,,,
3.1289062500,50,123.0000000000,,,
3.1308593750,50,176.0000000000,,,
3.1328125000,50,214.0000000000,,,
3.1347656250,50,226.0000000000,,,
3.1367187500,50,209.0000000000,,,
3.1386718750,50,178.0000000000,,,
3.1406250000,50,122.0000000000,,,
3.1425781250,50,101.0000000000,,,
3.1445312500,50,53.0000000000,,,
3.1464843750,50,23.0000000000,,,
3.1484375000,50,27.0000000000,,,
3.1503906250,50,25.0000000000,,,
3.1523437500,50,1.0000000000,,,
3.1542968750,50,8.0000000000,,,
3.1562500000,50,49.0000000000,,,
3.1582031250,50,71.0000000000,,,
3.1601562500,50,42.0000000000,,,
3.1621093750,50,24.0000000000,,,
3.1640625000,50,22.0000000000,,,
3.1660156250,50,18.0000000000,,,
3.1679687500,50,37.0000000000,,,
3.1699218750,50,21.0000000000,,,
3.1718750000,50,-11.0000000000,,,
3.1738281250,50,-5.0000000000,,,
3.1757812500,50,23.0000000000,,,
3.1777343750,50,34.0000000000,,,
3.1796875000,50,40.0000000000,,,
3.1816406250,50,36.0000000000,,,
3.1835937500,50,16.0000000000,,,
3.1855468750,50,2.0000000000,,,
3.1875000000,51,0.0000000000,,,
3.1894531250,51,8.0000000000,,,
3.1914062500,51,16.0000000000,,,
3.1933593750,51,22.0000000000,,,
3.1953125000,51,32.0000000000,,,
3.1972656250,51,45.0000000000,,,
3.1992187500,51,61.0000000000,,,
3.2011718750,51,57.0000000000,,,
3.2031250000,51,37.0000000000,,,
3.2050781250,51,49.0000000000,,,
3.2070312500,51,88.0000000000,,,
3.2089843750,51,118.0000000000,,,
3.2109375000,51,138.0000000000,,,
3.2128906250,51,145.0000000000,,,
3.2148437500,51,132.0000000000,,,
3.2167968750,51,134.0000000000,,,
3.2187500000,51,162.0000000000,,,
3.2207031250,51,186.0000000000,,,
3.2226562500,51,181.0000000000,,,
3.2246093750,51,162.0000000000,,,
3.2265625000,51,146.0000000000,,,
3.2285156250,51,131.0000000000,,,
3.2304687500,51,106.0000000000,,,
3.2324218750,51,75.0000000000,,,
3.2343750000,51,74.0000000000,,,
3.2363281250,51,106.0000000000,,,
3.2382812500,51,109.0000000000,,,
3.2402343750,51,91.0000000000,,,
3.2421875000,51,68.0000000000,,,
3.2441406250,51,48.0000000000,,,
3.2460937500,51,43.0000000000,,,
3.2480468750,51,66.0000000000,,,
3.2500000000,52,76.0000000000,,,
3.2519531250,52,72.0000000000,,,
3.2539062500,52,71.0000000000,,,
3.2558593750,52,57.0000000000,,,
3.2578125000,52,27.0000000000,,,
3.2597656250,52,-1.0000000000,,,
3.2617187500,52,-5.0000000000,,,
3.2636718750,52,3.0000000000,,,
3.2656250000,52,16.0000000000,,,
3.2675781250,52,20.0000000000,,,
3.2695312500,52,16.0000000000,,,
3.2714843750,52,13.0000000000,,,
3.2734375000,52,9.0000000000,,,
3.2753906250,52,9.0000000000,,,
3.2773437500,52,8.0000000000,,,
3.2792968750,52,20.0000000000,,,
3.2812500000,52,26.0000000000,,,
3.2832031250,52,23.0000000000,,,
3.2851562500,52,24.0000000000,,,
3.2871093750,52,0.0000000000,,,
3.2890625000,52,-39.0000000000,,,
3.2910156250,52,-30.0000000000,,,
3.2929687500,52,-2.0000000000,,,
3.2949218750,52,-1.0000000000,,,
3.2968750000,52,-19.0000000000,,,
3.2988281250,52,-18.0000000000,,,
3.3007812500,52,11.0000000000,,,
3.3027343750,52,42.0000000000,,,
3.3046875000,52,50.0000000000,,,
3.3066406250,52,32.0000000000,,,
3.3085937500,52,25.0000000000,,,
3.3105468750,52,42.0000000000,,,
3.3125000000,53,52.0000000000,,,
3.3144531250,53,44.0000000000,,,
3.3164062500,53,32.0000000000,,,
3.3183593750,53,32.0000000000,,,
3.3203125000,53,34.0000000000,,,
3.3222656250,53,21.0000000000,,,
3.3242187500,53,17.0000000000,,,
3.3261718750,53,2.0000000000,,,
3.3281250000,53,-24.0000000000,,,
3.3300781250,53,-30.0000000000,,,
3.3320312500,53,-18.0000000000,,,
3.3339843750,53,6.0000000000,,,
3.3359375000,53,24.0000000000,,,
3.3378906250,53,41.0000000000,,,
3.3398437500,53,42.0000000000,,,
3.3417968750,53,40.0000000000,,,
3.3437500000,53,56.0000000000,,,
3.3457031250,53,66.0000000000,,,
3.3476562500,53,58.0000000000,,,
3.3496093750,53,36.0000000000,,,
3.3515625000,53,20.0000000000,,,
3.3535156250,53,19.0000000000,,,
3.3554687500,53,41.0000000000,,,
3.3574218750,53,86.0000000000,,,
3.3593750000,53,97.0000000000,,,
3.3613281250,53,103.0000000000,,,
3.3632812500,53,113.0000000000,,,
3.3652343750,53,92.0000000000,,,
3.3671875000,53,67.0000000000,,,
3.3691406250,53,52.0000000000,,,
3.3710937500,53,69.0000000000,,,
3.3730468750,53,88.0000000000,,,
3.3750000000,54,82.0000000000,,,
3.3769531250,54,71.0000000000,,,
3.3789062500,54,83.0000000000,,,
3.3808593750,54,102.0000000000,,,
3.3828125000,54,106.0000000000,,,
3.3847656250,54,92.0000000000,,,
3.3867187500,54,66.0000000000,,,
3.3886718750,54,40.0000000000,,,
3.3906250000,54,27.0000000000,,,
3.3925781250,54,34.0000000000,,,
3.3945312500,54,43.0000000000,,,
3.3964843750,54,51.0000000000,,,
3.3984375000,54,66.0000000000,,,
3.4003906250,54,73.0000000000,,,
3.4023437500,54,52.0000000000,,,
3.4042968750,54,20.0000000000,,,
3.4062500000,54,-9.0000000000,,,
3.4082031250,54,-25.0000000000,,,
3.4101562500,54,-30.0000000000,,,
3.4121093750,54,-6.0000000000,,,
3.4140625000,54,40.0000000000,,,
3.4160156250,54,73.0000000000,,,
3.4179687500,54,83.0000000000,,,
3.4199218750,54,92.0000000000,,,
3.4218750000,54,120.0000000000,,,
3.4238281250,54,123.0000000000,,,
3.4257812500,54,112.0000000000,,,
3.4277343750,54,89.0000000000,,,
3.4296875000,54,58.0000000000,,,
3.4316406250,54,33.0000000000,,,
3.4335937500,54,43.0000000000,,,
3.4355468750,54,85.0000000000,,,
3.4375000000,55,107.0000000000,,,
3.4394531250,55,102.0000000000,,,
3.4414062500,55,74.0000000000,,,
3.4433593750,55,45.0000000000,,,
3.4453125000,55,40.0000000000,,,
3.4472656250,55,40.0000000000,,,
3.4492187500,55,43.0000000000,,,
3.4511718750,55,45.0000000000,,,
3.4531250000,55,24.0000000000,,,
3.4550781250,55,-11.0000000000,,,
3.4570312500,55,-27.0000000000,,,
3.4589843750,55,-20.0000000000,,,
3.4609375000,55,-5.0000000000,,,
3.4628906250,55,-10.0000000000,,,
3.4648437500,55,-20.0000000000,,,
3.4667968750,55,-12.0000000000,,,
3.4687500000,55,2.0000000000,,,
3.4707031250,55,11.0000000000,,,
3.4726562500,55,32.0000000000,,,
3.4746093750,55,38.0000000000,,,
3.4765625000,55,5.0000000000,,,
3.4785156250,55,-34.0000000000,,,
3.4804687500,55,-18.0000000000,,,
3.4824218750,55,21.0000000000,,,
3.4843750000,55,23.0000000000,,,
3.4863281250,55,12.0000000000,,,
3.4882812500,55,17.0000000000,,,
3.4902343750,55,8.0000000000,,,
3.4921875000,55,8.0000000000,,,
3.4941406250,55,44.0000000000,,,
3.4960937500,55,67.0000000000,,,
3.4980468750,55,42.0000000000,,,
3.5000000000,56,-12.0000000000,,,
3.5019531250,56,-61.0000000000,,,
3.5039062500,56,-27.0000000000,,,
3.5058593750,56,51.0000000000,,,
3.5078125000,56,103.0000000000,,,
3.5097656250,56,123.0000000000,,,
3.5117187500,56,148.0000000000,,,
3.5136718750,56,153.0000000000,,,
3.5156250000,56,149.0000000000,,,
3.5175781250,56,150.0000000000,,,
3.5195312500,56,149.0000000000,,,
3.5214843750,56,147.0000000000,,,
3.5234375000,56,148.0000000000,,,
3.5253906250,56,146.0000000000,,,
3.5273437500,56,164.0000000000,,,
3.5292968750,56,197.0000000000,,,
3.5312500000,56,225.0000000000,,,
3.5332031250,56,229.0000000000,,,
3.5351562500,56,208.0000000000,,,
3.5371093750,56,179.0000000000,,,
3.5390625000,56,182.0000000000,,,
3.5410156250,56,218.0000000000,,,
3.5429687500,56,230.0000000000,,,
3.5449218750,56,209.0000000000,,,
3.5468750000,56,199.0000000000,,,
3.5488281250,56,210.0000000000,,,
3.5507812500,56,209.0000000000,,,
3.5527343750,56,208.0000000000,,,
3.5546875000,56,218.0000000000,,,
3.5566406250,56,237.0000000000,,,
3.5585937500,56,246.0000000000,,,
3.5605468750,56,231.0000000000,33553,3.5605468750,0.0019531250
3.5625000000,57,231.0000000000,33554:33554,3.5625000000:3.5625000000,0.0000000000:0.0000000000
3.5644531250,57,225.0000000000,,,
3.5664062500,57,218.0000000000,,,
3.5683593750,57,195.0000000000,,,
3.5703125000,57,154.0000000000,,,
3.5722656250,57,136.0000000000,,,
3.5742187500,57,129.0000000000,,,
3.5761718750,57,102.0000000000,,,
3.5781250000,57,74.0000000000,,,
3.5800781250,57,82.0000000000,,,
3.5820312500,57,107.0000000000,,,
3.5839843750,57,107.0000000000,,,
3.5859375000,57,96.0000000000,,,
3.5878906250,57,89.0000000000,,,
3.5898437500,57,68.0000000000,,,
3.5917968750,57,27.0000000000,,,
3.5937500000,57,2.0000000000,,,
3.5957031250,57,-12.0000000000,,,
3.5976562500,57,-26.0000000000,,,
3.5996093750,57,-27.0000000000,,,
3.6015625000,57,-38.0000000000,,,
3.6035156250,57,-46.0000000000,,,
3.6054687500,57,-45.0000000000,,,
3.6074218750,57,-52.0000000000,,,
3.6093750000,57,-72.0000000000,,,
3.6113281250,57,-71.0000000000,,,
3.6132812500,57,-71.0000000000,,,
3.6152343750,57,-87.0000000000,,,
3.6171875000,57,-97.0000000000,,,
3.6191406250,57,-81.0000000000,,,
3.6210937500,57,-62.0000000000,,,
3.6230468750,57,-59.0000000000,,,
3.6250000000,58,-42.0000000000,,,
3.6269531250,58,-14.0000000000,,,
3.6289062500,58,5.0000000000,,,
3.6308593750,58,6.0000000000,,,
3.6328125000,58,-9.0000000000,,,
3.6347656250,58,-10.0000000000,,,
3.6367187500,58,3.0000000000,,,
3.6386718750,58,13.0000000000,,,
3.6406250000,58,13.0000000000,,,
3.6425781250,58,20.0000000000,,,
3.6445312500,58,26.0000000000,,,
3.6464843750,58,34.0000000000,,,
3.6484375000,58,60.0000000000,,,
3.6503906250,58,85.0000000000,,,
3.6523437500,58,89.0000000000,,,
3.6542968750,58,82.0000000000,,,
3.6562500000,58,66.0000000000,,,
3.6582031250,58,54.0000000000,,,
3.6601562500,58,59.0000000000,,,
3.6621093750,58,69.0000000000,,,
3.6640625000,58,67.0000000000,,,
3.6660156250,58,59.0000000000,,,
3.6679687500,58,67.0000000000,,,
3.6699218750,58,72.0000000000,,,
3.6718750000,58,71.0000000000,,,
3.6738281250,58,80.0000000000,,,
3.6757812500,58,87.0000000000,,,
3.6777343750,58,88.0000000000,,,
3.6796875000,58,91.0000000000,,,
3.6816406250,58,99.0000000000,,,
3.6835937500,58,88.0000000000,,,
3.6855468750,58,77.0000000000,,,
3.6875000000,59,87.0000000000,,,
3.6894531250,59,88.0000000000,,,
3.6914062500,59,77.0000000000,,,
3.6933593750,59,67.0000000000,,,
3.6953125000,59,64.0000000000,,,
3.6972656250,59,74.0000000000,,,
3.6992187500,59,80.0000000000,,,
3.7011718750,59,87.0000000000,,,
3.7031250000,59,99.0000000000,,,
3.7050781250,59,99.0000000000,,,
3.7070312500,59,87.0000000000,,,
3.7089843750,59,76.0000000000,,,
3.7109375000,59,73.0000000000,,,
3.7128906250,59,84.0000000000,,,
3.7148437500,59,89.0000000000,,,
3.7167968750,59,77.0000000000,,,
3.7187500000,59,49.0000000000,,,
3.7207031250,59,32.0000000000,,,
3.7226562500,59,43.0000000000,,,
3.7246093750,59,54.0000000000,,,
3.7265625000,59,48.0000000000,,,
3.7285156250,59,68.0000000000,,,
3.7304687500,59,87.0000000000,,,
3.7324218750,59,76.0000000000,,,
3.7343750000,59,70.0000000000,,,
3.7363281250,59,59.0000000000,,,
3.7382812500,59,43.0000000000,,,
3.7402343750,59,51.0000000000,,,
3.7421875000,59,72.0000000000,,,
3.7441406250,59,60.0000000000,,,
3.7460937500,59,21.0000000000,,,
3.7480468750,59,6.0000000000,,,
3.7500000000,60,-4.0000000000,,,
3.7519531250,60,-3.0000000000,,,
3.7539062500,60,16.0000000000,,,
3.7558593750,60,25.0000000000,,,
3.7578125000,60,49.0000000000,,,
3.7597656250,60,72.0000000000,,,
3.7617187500,60,69.0000000000,,,
3.7636718750,60,50.0000000000,,,
3.7656250000,60,21.0000000000,,,
3.7675781250,60,1.0000000000,,,
3.7695312500,60,0.0000000000,,,
3.7714843750,60,3.0000000000,,,
3.7734375000,60,-17.0000000000,,,
3.7753906250,60,-58.0000000000,,,
3.7773437500,60,-86.0000000000,,,
3.7792968750,60,-67.0000000000,,,
3.7812500000,60,-44.0000000000,,,
3.7832031250,60,-51.0000000000,,,
3.7851562500,60,-38.0000000000,,,
3.7871093750,60,-34.0000000000,,,
3.7890625000,60,-71.0000000000,,,
3.7910156250,60,-103.0000000000,,,
3.7929687500,60,-98.0000000000,,,
3.7949218750,60,-82.0000000000,,,
3.7968750000,60,-52.0000000000,,,
3.7988281250,60,-29.0000000000,,,
3.8007812500,60,-44.0000000000,,,
3.8027343750,60,-56.0000000000,,,
3.8046875000,60,-41.0000000000,,,
3.8066406250,60,-37.0000000000,,,
3.8085937500,60,-62.0000000000,,,
3.8105468750,60,-94.0000000000,,,
3.8125000000,61,-115.0000000000,,,
3.8144531250,61,-119.0000000000,,,
3.8164062500,61,-116.0000000000,,,
3.8183593750,61,-130.0000000000,,,
3.8203125000,61,-156.0000000000,,,
3.8222656250,61,-167.0000000000,,,
3.8242187500,61,-137.0000000000,,,
3.8261718750,61,-94.0000000000,,,
3.8281250000,61,-44.0000000000,,,
3.8300781250,61,-58.0000000000,,,
3.8320312500,61,-151.0000000000,,,
3.8339843750,61,-190.0000000000,,,
3.8359375000,61,-200.0000000000,,,
3.8378906250,61,-206.0000000000,,,
3.8398437500,61,-195.0000000000,,,
3.8417968750,61,-183.0000000000,,,
3.8437500000,61,-203.0000000000,,,
3.8457031250,61,-229.0000000000,,,
3.8476562500,61,-222.0000000000,,,
3.8496093750,61,-184.0000000000,,,
3.8515625000,61,-116.0000000000,,,
3.8535156250,61,-99.0000000000,,,
3.8554687500,61,-135.0000000000,,,
3.8574218750,61,-167.0000000000,,,
3.8593750000,61,-151.0000000000,,,
3.8613281250,61,-108.0000000000,,,
3.8632812500,61,-85.0000000000,,,
3.8652343750,61,-65.0000000000,,,
3.8671875000,61,1.0000000000,,,
3.8691406250,61,5.0000000000,,,
3.8710937500,61,-23.0000000000,,,
3.8730468750,61,25.0000000000,,,
3.8750000000,62,99.0000000000,,,
3.8769531250,62,170.0000000000,,,
3.8789062500,62,85.0000000000,,,
3.8808593750,62,-70.0000000000,,,
3.8828125000,62,-113.0000000000,,,
3.8847656250,62,-23.0000000000,,,
3.8867187500,62,65.0000000000,,,
3.8886718750,62,82.0000000000,,,
3.8906250000,62,10.0000000000,,,
3.8925781250,62,1.0000000000,,,
3.8945312500,62,76.0000000000,,,
3.8964843750,62,130.0000000000,,,
3.8984375000,62,68.0000000000,,,
3.9003906250,62,23.0000000000,,,
3.9023437500,62,38.0000000000,,,
3.9042968750,62,-1.0000000000,,,
3.9062500000,62,-37.0000000000,,,
3.9082031250,62,-65.0000000000,,,
3.9101562500,62,-55.0000000000,,,
3.9121093750,62,-45.0000000000,,,
3.9140625000,62,-29.0000000000,,,
3.9160156250,62,0.0000000000,,,
3.9179687500,62,0.0000000000,,,
3.9199218750,62,-27.0000000000,,,
3.9218750000,62,-66.0000000000,,,
3.9238281250,62,-74.0000000000,,,
3.9257812500,62,-51.0000000000,,,
3.9277343750,62,-12.0000000000,,,
3.9296875000,62,11.0000000000,,,
3.9316406250,62,33.0000000000,,,
3.9335937500,62,72.0000000000,,,
3.9355468750,62,178.0000000000,,,
3.9375000000,63,260.0000000000,,,
3.9394531250,63,251.0000000000,,,
3.9414062500,63,230.0000000000,,,
3.9433593750,63,267.0000000000,,,
3.9453125000,63,218.0000000000,,,
3.9472656250,63,37.0000000000,,,
3.9492187500,63,-55.0000000000,,,
3.9511718750,63,40.0000000000,,,
3.9531250000,63,146.0000000000,,,
3.9550781250,63,98.0000000000,,,
3.9570312500,63,-29.0000000000,,,
3.9589843750,63,-120.0000000000,,,
3.9609375000,63,-66.0000000000,,,
3.9628906250,63,28.0000000000,,,
3.9648437500,63,74.0000000000,,,
3.9667968750,63,102.0000000000,,,
3.9687500000,63,69.0000000000,,,
3.9707031250,63,25.0000000000,,,
3.9726562500,63,96.0000000000,,,
3.9746093750,63,178.0000000000,,,
3.9765625000,63,154.0000000000,,,
3.9785156250,63,71.0000000000,,,
3.9804687500,63,52.0000000000,,,
3.9824218750,63,72.0000000000,,,
3.9843750000,63,44.0000000000,,,
3.9863281250,63,16.0000000000,,,
3.9882812500,63,12.0000000000,,,
3.9902343750,63,65.0000000000,,,
3.9921875000,63,86.0000000000,,,
3.9941406250,63,50.0000000000,,,
3.9960937500,63,37.0000000000,,,
3.9980468750,63,80.0000000000,,,
4.0000000000,64,85.0000000000,,,
4.0019531250,64,29.0000000000,,,
4.0039062500,64,-6.0000000000,,,
4.0058593750,64,-11.0000000000,,,
4.0078125000,64,4.0000000000,,,
4.0097656250,64,36.0000000000,,,
4.0117187500,64,67.0000000000,,,
4.0136718750,64,103.0000000000,,,
4.0156250000,64,132.0000000000,,,
4.0175781250,64,117.0000000000,,,
4.0195312500,64,70.0000000000,,,
4.0214843750,64,44.0000000000,,,
4.0234375000,64,59.0000000000,,,
4.0253906250,64,97.0000000000,,,
4.0273437500,64,132.0000000000,,,
4.0292968750,64,148.0000000000,,,
4.0312500000,64,149.0000000000,,,
4.0332031250,64,160.0000000000,,,
4.0351562500,64,165.0000000000,,,
4.0371093750,64,146.0000000000,,,
4.0390625000,64,117.0000000000,,,
4.0410156250,64,97.0000000000,,,
4.0429687500,64,81.0000000000,,,
4.0449218750,64,65.0000000000,,,
4.0468750000,64,80.0000000000,,,
4.0488281250,64,119.0000000000,,,
4.0507812500,64,137.0000000000,,,
4.0527343750,64,114.0000000000,,,
4.0546875000,64,82.0000000000,,,
4.0566406250,64,81.0000000000,,,
4.0585937500,64,103.0000000000,,,
4.0605468750,64,121.0000000000,,,
4.0625000000,65,121.0000000000,,,
4.0644531250,65,97.0000000000,,,
4.0664062500,65,71.0000000000,,,
4.0683593750,65,67.0000000000,,,
4.0703125000,65,82.0000000000,,,
4.0722656250,65,92.0000000000,,,
4.0742187500,65,93.0000000000,,,
4.0761718750,65,98.0000000000,,,
4.0781250000,65,107.0000000000,,,
4.0800781250,65,100.0000000000,,,
4.0820312500,65,83.0000000000,,,
4.0839843750,65,75.0000000000,,,
4.0859375000,65,70.0000000000,,,
4.0878906250,65,70.0000000000,,,
4.0898437500,65,68.0000000000,,,
4.0917968750,65,58.0000000000,,,
4.0937500000,65,52.0000000000,,,
4.0957031250,65,57.0000000000,,,
4.0976562500,65,54.0000000000,,,
4.0996093750,65,43.0000000000,,,
4.1015625000,65,54.0000000000,,,
4.1035156250,65,85.0000000000,,,
4.1054687500,65,89.0000000000,,,
4.1074218750,65,76.0000000000,,,
4.1093750000,65,81.0000000000,,,
4.1113281250,65,89.0000000000,,,
4.1132812500,65,86.0000000000,,,
4.1152343750,65,76.0000000000,,,
4.1171875000,65,44.0000000000,,,
4.1191406250,65,16.0000000000,,,
4.1210937500,65,33.0000000000,,,
4.1230468750,65,71.0000000000,,,
4.1250000000,66,81.0000000000,,,
4.1269531250,66,58.0000000000,,,
4.1289062500,66,37.0000000000,,,
4.1308593750,66,23.0000000000,,,
4.1328125000,66,21.0000000000,,,
4.1347656250,66,33.0000000000,,,
4.1367187500,66,49.0000000000,,,
4.1386718750,66,52.0000000000,,,
4.1406250000,66,44.0000000000,,,
4.1425781250,66,26.0000000000,,,
4.1445312500,66,13.0000000000,,,
4.1464843750,66,19.0000000000,,,
4.1484375000,66,27.0000000000,,,
4.1503906250,66,36.0000000000,,,
4.1523437500,66,36.0000000000,,,
4.1542968750,66,29.0000000000,,,
4.1562500000,66,26.0000000000,,,
4.1582031250,66,23.0000000000,,,
4.1601562500,66,20.0000000000,,,
4.1621093750,66,20.0000000000,,,
4.1640625000,66,33.0000000000,,,
4.1660156250,66,51.0000000000,,,
4.1679687500,66,68.0000000000,,,
4.1699218750,66,69.0000000000,,,
4.1718750000,66,56.0000000000,,,
4.1738281250,66,50.0000000000,,,
4.1757812500,66,54.0000000000,,,
4.1777343750,66,60.0000000000,,,
4.1796875000,66,72.0000000000,,,
4.1816406250,66,77.0000000000,,,
4.1835937500,66,60.0000000000,,,
4.1855468750,66,50.0000000000,,,
4.1875000000,67,53.0000000000,,,
4.1894531250,67,71.0000000000,,,
4.1914062500,67,84.0000000000,,,
4.1933593750,67,88.0000000000,,,
4.1953125000,67,89.0000000000,,,
4.1972656250,67,87.0000000000,,,
4.1992187500,67,80.0000000000,,,
4.2011718750,67,76.0000000000,,,
4.2031250000,67,80.0000000000,,,
4.2050781250,67,75.0000000000,,,
4.2070312500,67,74.0000000000,,,
4.2089843750,67,103.0000000000,,,
4.2109375000,67,148.0000000000,,,
4.2128906250,67,165.0000000000,,,
4.2148437500,67,153.0000000000,,,
4.2167968750,67,140.0000000000,,,
4.2187500000,67,108.0000000000,,,
4.2207031250,67,64.0000000000,,,
4.2226562500,67,39.0000000000,,,
4.2246093750,67,42.0000000000,,,
4.2265625000,67,48.0000000000,,,
4.2285156250,67,60.0000000000,,,
4.2304687500,67,67.0000000000,,,
4.2324218750,67,64.0000000000,,,
4.2343750000,67,76.0000000000,,,
4.2363281250,67,106.0000000000,,,
4.2382812500,67,112.0000000000,,,
4.2402343750,67,81.0000000000,,,
4.2421875000,67,54.0000000000,,,
4.2441406250,67,57.0000000000,,,
4.2460937500,67,67.0000000000,,,
4.2480468750,67,68.0000000000,,,
4.2500000000,68,70.0000000000,,,
4.2519531250,68,61.0000000000,,,
4.2539062500,68,53.0000000000,,,
4.2558593750,68,43.0000000000,,,
4.2578125000,68,45.0000000000,,,
4.2597656250,68,53.0000000000,,,
4.2617187500,68,57.0000000000,,,
4.2636718750,68,75.0000000000,,,
4.2656250000,68,99.0000000000,,,
4.2675781250,68,99.0000000000,,,
4.2695312500,68,90.0000000000,,,
4.2714843750,68,97.0000000000,,,
4.2734375000,68,102.0000000000,,,
4.2753906250,68,116.0000000000,,,
4.2773437500,68,131.0000000000,,,
4.2792968750,68,131.0000000000,,,
4.2812500000,68,108.0000000000,,,
4.2832031250,68,84.0000000000,,,
4.2851562500,68,68.0000000000,,,
4.2871093750,68,54.0000000000,,,
4.2890625000,68,40.0000000000,,,
4.2910156250,68,37.0000000000,,,
4.2929687500,68,39.0000000000,,,
4.2949218750,68,35.0000000000,,,
4.2968750000,68,28.0000000000,,,
4.2988281250,68,37.0000000000,,,
4.3007812500,68,64.0000000000,,,
4.3027343750,68,84.0000000000,,,
4.3046875000,68,101.0000000000,,,
4.3066406250,68,119.0000000000,,,
4.3085937500,68,115.0000000000,,,
4.3105468750,68,103.0000000000,,,
4.3125000000,69,114.0000000000,,,
4.3144531250,69,105.0000000000,,,
4.3164062500,69,73.0000000000,,,
4.3183593750,69,38.0000000000,,,
4.3203125000,69,19.0000000000,,,
4.3222656250,69,40.0000000000,,,
4.3242187500,69,80.0000000000,,,
4.3261718750,69,90.0000000000,,,
4.3281250000,69,77.0000000000,,,
4.3300781250,69,54.0000000000,,,
4.3320312500,69,39.0000000000,,,
4.3339843750,69,42.0000000000,,,
4.3359375000,69,69.0000000000,,,
4.3378906250,69,85.0000000000,,,
4.3398437500,69,66.0000000000,,,
4.3417968750,69,28.0000000000,,,
4.3437500000,69,-4.0000000000,,,
4.3457031250,69,-3.0000000000,,,
4.3476562500,69,9.0000000000,,,
4.3496093750,69,20.0000000000,,,
4.3515625000,69,38.0000000000,,,
4.3535156250,69,48.0000000000,,,
4.3554687500,69,42.0000000000,,,
4.3574218750,69,37.0000000000,,,
4.3593750000,69,45.0000000000,,,
4.3613281250,69,68.0000000000,,,
4.3632812500,69,73.0000000000,,,
4.3652343750,69,54.0000000000,,,
4.3671875000,69,50.0000000000,,,
4.3691406250,69,69.0000000000,,,
4.3710937500,69,89.0000000000,,,
4.3730468750,69,70.0000000000,,,
4.3750000000,70,16.0000000000,,,
4.3769531250,70,-13.0000000000,,,
4.3789062500,70,-5.0000000000,,,
4.3808593750,70,24.0000000000,,,
4.3828125000,70,58.0000000000,,,
4.3847656250,70,65.0000000000,,,
4.3867187500,70,37.0000000000,,,
4.3886718750,70,22.0000000000,,,
4.3906250000,70,23.0000000000,,,
4.3925781250,70,18.0000000000,,,
4.3945312500,70,9.0000000000,,,
4.3964843750,70,0.0000000000,,,
4.3984375000,70,-6.0000000000,,,
4.4003906250,70,19.0000000000,,,
4.4023437500,70,75.0000000000,,,
4.4042968750,70,98.0000000000,,,
4.4062500000,70,56.0000000000,,,
4.4082031250,70,22.0000000000,,,
4.4101562500,70,35.0000000000,,,
4.4121093750,70,73.0000000000,,,
4.4140625000,70,103.0000000000,,,
4.4160156250,70,99.0000000000,,,
4.4179687500,70,80.0000000000,,,
4.4199218750,70,68.0000000000,,,
4.4218750000,70,56.0000000000,,,
4.4238281250,70,58.0000000000,,,
4.4257812500,70,73.0000000000,,,
4.4277343750,70,88.0000000000,,,
4.4296875000,70,91.0000000000,,,
4.4316406250,70,81.0000000000,,,
4.4335937500,70,58.0000000000,,,
4.4355468750,70,53.0000000000,,,
4.4375000000,71,49.0000000000,,,
4.4394531250,71,17.0000000000,,,
4.4414062500,71,-14.0000000000,,,
4.4433593750,71,-4.0000000000,,,
4.4453125000,71,55.0000000000,,,
4.4472656250,71,104.0000000000,,,
4.4492187500,71,117.0000000000,,,
4.4511718750,71,115.0000000000,,,
4.4531250000,71,122.0000000000,,,
4.4550781250,71,138.0000000000,,,
4.4570312500,71,147.0000000000,,,
4.4589843750,71,119.0000000000,,,
4.4609375000,71,61.0000000000,,,
4.4628906250,71,0.0000000000,,,
4.4648437500,71,-53.0000000000,,,
4.4667968750,71,-68.0000000000,,,
4.4687500000,71,-52.0000000000,,,
4.4707031250,71,-21.0000000000,,,
4.4726562500,71,21.0000000000,,,
4.4746093750,71,69.0000000000,,,
4.4765625000,71,87.0000000000,,,
4.4785156250,71,49.0000000000,,,
4.4804687500,71,-8.0000000000,,,
4.4824218750,71,-35.0000000000,,,
4.4843750000,71,-43.0000000000,,,
4.4863281250,71,-59.0000000000,,,
4.4882812500,71,-99.0000000000,,,
4.4902343750,71,-101.0000000000,,,
4.4921875000,71,-55.0000000000,,,
4.4941406250,71,11.0000000000,,,
4.4960937500,71,38.0000000000,,,
4.4980468750,71,25.0000000000,,,
4.5000000000,72,38.0000000000,,,
4.5019531250,72,80.0000000000,,,
4.5039062500,72,98.0000000000,,,
4.5058593750,72,88.0000000000,,,
4.5078125000,72,56.0000000000,,,
4.5097656250,72,32.0000000000,,,
4.5117187500,72,23.0000000000,,,
4.5136718750,72,16.0000000000,,,
4.5156250000,72,45.0000000000,,,
4.5175781250,72,86.0000000000,,,
4.5195312500,72,86.0000000000,,,
4.5214843750,72,52.0000000000,,,
4.5234375000,72,18.0000000000,,,
4.5253906250,72,18.0000000000,,,
4.5273437500,72,20.0000000000,,,
4.5292968750,72,4.0000000000,,,
4.5312500000,72,28.0000000000,,,
4.5332031250,72,107.0000000000,,,
4.5351562500,72,140.0000000000,,,
4.5371093750,72,91.0000000000,,,
4.5390625000,72,64.0000000000,,,
4.5410156250,72,92.0000000000,,,
4.5429687500,72,123.0000000000,,,
4.5449218750,72,101.0000000000,,,
4.5468750000,72,21.0000000000,,,
4.5488281250,72,-29.0000000000,,,
4.5507812500,72,-52.0000000000,,,
4.5527343750,72,-77.0000000000,,,
4.5546875000,72,-65.0000000000,,,
4.5566406250,72,-17.0000000000,,,
4.5585937500,72,12.0000000000,,,
4.5605468750,72,5.0000000000,,,
4.5625000000,73,18.0000000000,,,
4.5644531250,73,59.0000000000,,,
4.5664062500,73,90.0000000000,,,
4.5683593750,73,90.0000000000,,,
4.5703125000,73,65.0000000000,,,
4.5722656250,73,26.0000000000,,,
4.5742187500,73,-25.0000000000,,,
4.5761718750,73,-51.0000000000,,,
4.5781250000,73,3.0000000000,,,
4.5800781250,73,37.0000000000,,,
4.5820312500,73,8.0000000000,,,
4.5839843750,73,-5.0000000000,,,
4.5859375000,73,-11.0000000000,,,
4.5878906250,73,-33.0000000000,,,
4.5898437500,73,-18.0000000000,,,
4.5917968750,73,0.0000000000,,,
4.5937500000,73,-4.0000000000,,,
4.5957031250,73,11.0000000000,,,
4.5976562500,73,42.0000000000,,,
4.5996093750,73,68.0000000000,,,
4.6015625000,73,52.0000000000,,,
4.6035156250,73,-43.0000000000,,,
4.6054687500,73,-102.0000000000,,,
4.6074218750,73,26.0000000000,,,
4.6093750000,73,184.0000000000,,,
4.6113281250,73,165.0000000000,,,
4.6132812500,73,40.0000000000,,,
4.6152343750,73,-61.0000000000,,,
4.6171875000,73,-78.0000000000,,,
4.6191406250,73,13.0000000000,,,
4.6210937500,73,66.0000000000,,,
4.6230468750,73,26.0000000000,,,
4.6250000000,74,-5.0000000000,,,
4.6269531250,74,4.0000000000,,,
4.6289062500,74,36.0000000000,,,
4.6308593750,74,43.0000000000,,,
4.6328125000,74,18.0000000000,,,
4.6347656250,74,-1.0000000000,,,
4.6367187500,74,-11.0000000000,,,
4.6386718750,74,-18.0000000000,,,
4.6406250000,74,43.0000000000,,,
4.6425781250,74,107.0000000000,,,
4.6445312500,74,122.0000000000,,,
4.6464843750,74,73.0000000000,,,
4.6484375000,74,10.0000000000,,,
4.6503906250,74,-13.0000000000,,,
4.6523437500,74,17.0000000000,,,
4.6542968750,74,53.0000000000,,,
4.6562500000,74,54.0000000000,,,
4.6582031250,74,32.0000000000,,,
4.6601562500,74,-28.0000000000,,,
4.6621093750,74,-73.0000000000,,,
4.6640625000,74,-22.0000000000,,,
4.6660156250,74,59.0000000000,,,
4.6679687500,74,98.0000000000,,,
4.6699218750,74,93.0000000000,,,
4.6718750000,74,59.0000000000,,,
4.6738281250,74,6.0000000000,,,
4.6757812500,74,-37.0000000000,,,
4.6777343750,74,-72.0000000000,,,
4.6796875000,74,-94.0000000000,,,
4.6816406250,74,-75.0000000000,,,
4.6835937500,74,13.0000000000,,,
4.6855468750,74,57.0000000000,,,
4.6875000000,75,33.0000000000,,,
4.6894531250,75,38.0000000000,,,
4.6914062500,75,86.0000000000,,,
4.6933593750,75,137.0000000000,,,
4.6953125000,75,153.0000000000,,,
4.6972656250,75,121.0000000000,,,
4.6992187500,75,98.0000000000,,,
4.7011718750,75,67.0000000000,,,
4.7031250000,75,-5.0000000000,,,
4.7050781250,75,-52.0000000000,,,
4.7070312500,75,-42.0000000000,,,
4.7089843750,75,-39.0000000000,,,
4.7109375000,75,-44.0000000000,,,
4.7128906250,75,17.0000000000,,,
4.7148437500,75,117.0000000000,,,
4.7167968750,75,168.0000000000,,,
4.7187500000,75,157.0000000000,,,
4.7207031250,75,123.0000000000,,,
4.7226562500,75,88.0000000000,,,
4.7246093750,75,86.0000000000,,,
4.7265625000,75,124.0000000000,,,
4.7285156250,75,133.0000000000,,,
4.7304687500,75,97.0000000000,,,
4.7324218750,75,64.0000000000,,,
4.7343750000,75,86.0000000000,,,
4.7363281250,75,147.0000000000,,,
4.7382812500,75,224.0000000000,,,
4.7402343750,75,246.0000000000,,,
4.7421875000,75,184.0000000000,,,
4.7441406250,75,92.0000000000,,,
4.7460937500,75,25.0000000000,,,
4.7480468750,75,-41.0000000000,,,
4.7500000000,76,-91.0000000000,,,
4.7519531250,76,-88.0000000000,,,
4.7539062500,76,-44.0000000000,,,
4.7558593750,76,5.0000000000,,,
4.7578125000,76,38.0000000000,,,
4.7597656250,76,67.0000000000,,,
4.7617187500,76,112.0000000000,,,
4.7636718750,76,119.0000000000,,,
4.7656250000,76,68.0000000000,,,
4.7675781250,76,56.0000000000,,,
4.7695312500,76,97.0000000000,,,
4.7714843750,76,101.0000000000,,,
4.7734375000,76,54.0000000000,,,
4.7753906250,76,16.0000000000,,,
4.7773437500,76,10.0000000000,,,
4.7792968750,76,-14.0000000000,,,
4.7812500000,76,-14.0000000000,,,
4.7832031250,76,72.0000000000,,,
4.7851562500,76,112.0000000000,,,
4.7871093750,76,1.0000000000,,,
4.7890625000,76,-136.0000000000,,,
4.7910156250,76,-182.0000000000,,,
4.7929687500,76,-117.0000000000,,,
4.7949218750,76,-24.0000000000,,,
4.7968750000,76,6.0000000000,,,
4.7988281250,76,-26.0000000000,,,
4.8007812500,76,-52.0000000000,,,
4.8027343750,76,-62.0000000000,,,
4.8046875000,76,-54.0000000000,,,
4.8066406250,76,-24.0000000000,,,
4.8085937500,76,0.0000000000,,,
4.8105468750,76,-9.0000000000,,,
4.8125000000,77,-36.0000000000,,,
4.8144531250,77,33.0000000000,,,
4.8164062500,77,123.0000000000,,,
4.8183593750,77,92.0000000000,,,
4.8203125000,77,25.0000000000,,,
4.8222656250,77,55.0000000000,,,
4.8242187500,77,128.0000000000,,,
4.8261718750,77,122.0000000000,,,
4.8281250000,77,69.0000000000,,,
4.8300781250,77,60.0000000000,,,
4.8320312500,77,96.0000000000,,,
4.8339843750,77,103.0000000000,,,
4.8359375000,77,43.0000000000,,,
4.8378906250,77,-43.0000000000,,,
4.8398437500,77,-52.0000000000,,,
4.8417968750,77,11.0000000000,,,
4.8437500000,77,48.0000000000,,,
4.8457031250,77,27.0000000000,,,
4.8476562500,77,-22.0000000000,,,
4.8496093750,77,-51.0000000000,,,
4.8515625000,77,-58.0000000000,,,
4.8535156250,77,-40.0000000000,,,
4.8554687500,77,-42.0000000000,,,
4.8574218750,77,-76.0000000000,,,
4.8593750000,77,-114.0000000000,,,
4.8613281250,77,-122.0000000000,,,
4.8632812500,77,-118.0000000000,,,
4.8652343750,77,-102.0000000000,,,
4.8671875000,77,-66.0000000000,,,
4.8691406250,77,-44.0000000000,,,
4.8710937500,77,-58.0000000000,,,
4.8730468750,77,-39.0000000000,,,
4.8750000000,78,-3.0000000000,,,
4.8769531250,78,6.0000000000,,,
4.8789062500,78,-5.0000000000,,,
4.8808593750,78,-28.0000000000,,,
4.8828125000,78,-56.0000000000,,,
4.8847656250,78,-74.0000000000,,,
4.8867187500,78,-75.0000000000,,,
4.8886718750,78,-42.0000000000,,,
4.8906250000,78,-36.0000000000,,,
4.8925781250,78,-87.0000000000,,,
4.8945312500,78,-120.0000000000,,,
4.8964843750,78,-122.0000000000,,,
4.8984375000,78,-92.0000000000,,,
4.9003906250,78,-61.0000000000,,,
4.9023437500,78,-74.0000000000,,,
4.9042968750,78,-118.0000000000,,,
4.9062500000,78,-168.0000000000,,,
4.9082031250,78,-172.0000000000,,,
4.9101562500,78,-148.0000000000,,,
4.9121093750,78,-163.0000000000,,,
4.9140625000,78,-202.0000000000,,,
4.9160156250,78,-220.0000000000,,,
4.9179687500,78,-216.0000000000,,,
4.9199218750,78,-190.0000000000,,,
4.9218750000,78,-165.0000000000,,,
4.9238281250,78,-164.0000000000,,,
4.9257812500,78,-182.0000000000,,,
4.9277343750,78,-183.0000000000,,,
4.9296875000,78,-161.0000000000,,,
4.9316406250,78,-137.0000000000,,,
4.9335937500,78,-130.0000000000,,,
4.9355468750,78,-130.0000000000,,,
4.9375000000,79,-116.0000000000,,,
4.9394531250,79,-98.0000000000,,,
4.9414062500,79,-70.0000000000,,,
4.9433593750,79,-52.0000000000,,,
4.9453125000,79,-51.0000000000,,,
4.9472656250,79,-43.0000000000,,,
4.9492187500,79,-34.0000000000,,,
4.9511718750,79,-18.0000000000,,,
4.9531250000,79,25.0000000000,,,
4.9550781250,79,67.0000000000,,,
4.9570312500,79,80.0000000000,,,
4.9589843750,79,72.0000000000,,,
4.9609375000,79,82.0000000000,,,
4.9628906250,79,92.0000000000,,,
4.9648437500,79,98.0000000000,,,
4.9667968750,79,103.0000000000,,,
4.9687500000,79,119.0000000000,,,
4.9707031250,79,115.0000000000,,,
4.9726562500,79,104.0000000000,,,
4.9746093750,79,130.0000000000,,,
4.9765625000,79,154.0000000000,,,
4.9785156250,79,146.0000000000,,,
4.9804687500,79,132.0000000000,,,
4.9824218750,79,141.0000000000,,,
4.9843750000,79,166.0000000000,,,
4.9863281250,79,180.0000000000,,,
4.9882812500,79,179.0000000000,,,
4.9902343750,79,176.0000000000,,,
4.9921875000,79,181.0000000000,,,
4.9941406250,79,199.0000000000,,,
4.9960937500,79,211.0000000000,,,
4.9980468750,79,193.0000000000,,,
5.0000000000,80,161.0000000000,,,
5.0019531250,80,137.0000000000,,,
5.0039062500,80,132.0000000000,,,
5.0058593750,80,156.0000000000,,,
5.0078125000,80,187.0000000000,,,
5.0097656250,80,200.0000000000,,,
5.0117187500,80,192.0000000000,,,
5.0136718750,80,183.0000000000,,,
5.0156250000,80,179.0000000000,,,
5.0175781250,80,180.0000000000,,,
5.0195312500,80,170.0000000000,,,
5.0214843750,80,165.0000000000,,,
5.0234375000,80,168.0000000000,,,
5.0253906250,80,173.0000000000,,,
5.0273437500,80,167.0000000000,,,
5.0292968750,80,152.0000000000,,,
5.0312500000,80,146.0000000000,,,
5.0332031250,80,151.0000000000,,,
5.0351562500,80,149.0000000000,,,
5.0371093750,80,124.0000000000,,,
5.0390625000,80,89.0000000000,,,
5.0410156250,80,72.0000000000,,,
5.0429687500,80,81.0000000000,,,
5.0449218750,80,90.0000000000,,,
5.0468750000,80,89.0000000000,,,
5.0488281250,80,87.0000000000,,,
5.0507812500,80,93.0000000000,,,
5.0527343750,80,96.0000000000,,,
5.0546875000,80,92.0000000000,,,
5.0566406250,80,88.0000000000,,,
5.0585937500,80,98.0000000000,,,
5.0605468750,80,117.0000000000,,,
5.0625000000,81,121.0000000000,,,
5.0644531250,81,117.0000000000,,,
5.0664062500,81,115.0000000000,,,
5.0683593750,81,104.0000000000,,,
5.0703125000,81,86.0000000000,,,
5.0722656250,81,75.0000000000,,,
5.0742187500,81,74.0000000000,,,
5.0761718750,81,70.0000000000,,,
5.0781250000,81,56.0000000000,,,
5.0800781250,81,35.0000000000,,,
5.0820312500,81,24.0000000000,,,
5.0839843750,81,27.0000000000,,,
5.0859375000,81,38.0000000000,,,
5.0878906250,81,42.0000000000,,,
5.0898437500,81,28.0000000000,,,
5.0917968750,81,21.0000000000,,,
5.0937500000,81,26.0000000000,,,
5.0957031250,81,26.0000000000,,,
5.0976562500,81,34.0000000000,,,
5.0996093750,81,37.0000000000,,,
5.1015625000,81,33.0000000000,,,
5.1035156250,81,13.0000000000,,,
5.1054687500,81,-7.0000000000,,,
5.1074218750,81,-7.0000000000,,,
5.1093750000,81,6.0000000000,,,
5.1113281250,81,2.0000000000,,,
5.1132812500,81,-6.0000000000,,,
5.1152343750,81,-8.0000000000,,,
5.1171875000,81,-20.0000000000,,,
5.1191406250,81,-40.0000000000,,,
5.1210937500,81,-52.0000000000,,,
5.1230468750,81,-53.0000000000,,,
5.1250000000,82,-50.0000000000,,,
5.1269531250,82,-53.0000000000,,,
5.1289062500,82,-67.0000000000,,,
5.1308593750,82,-73.0000000000,,,
5.1328125000,82,-67.0000000000,,,
5.1347656250,82,-57.0000000000,,,
5.1367187500,82,-57.0000000000,,,
5.1386718750,82,-55.0000000000,,,
5.1406250000,82,-49.0000000000,,,
5.1425781250,82,-49.0000000000,,,
5.1445312500,82,-36.0000000000,,,
5.1464843750,82,-18.0000000000,,,
5.1484375000,82,-8.0000000000,,,
5.1503906250,82,-2.0000000000,,,
5.1523437500,82,-8.0000000000,,,
5.1542968750,82,-30.0000000000,,,
5.1562500000,82,-39.0000000000,,,
5.1582031250,82,-19.0000000000,,,
5.1601562500,82,-2.0000000000,,,
5.1621093750,82,5.0000000000,,,
5.1640625000,82,12.0000000000,,,
5.1660156250,82,13.0000000000,,,
5.1679687500,82,13.0000000000,,,
5.1699218750,82,20.0000000000,,,
5.1718750000,82,25.0000000000,,,
5.1738281250,82,42.0000000000,,,
5.1757812500,82,48.0000000000,,,
5.1777343750,82,26.0000000000,,,
5.1796875000,82,-2.0000000000,,,
5.1816406250,82,-11.0000000000,,,
5.1835937500,82,8.0000000000,,,
5.1855468750,82,25.0000000000,,,
5.1875000000,83,20.0000000000,,,
5.1894531250,83,0.0000000000,,,
5.1914062500,83,-33.0000000000,,,
5.1933593750,83,-57.0000000000,,,
5.1953125000,83,-49.0000000000,,,
5.1972656250,83,-10.0000000000,,,
5.1992187500,83,25.0000000000,,,
5.2011718750,83,55.0000000000,,,
5.2031250000,83,80.0000000000,,,
5.2050781250,83,91.0000000000,,,
5.2070312500,83,106.0000000000,,,
5.2089843750,83,132.0000000000,,,
5.2109375000,83,155.0000000000,,,
5.2128906250,83,154.0000000000,,,
5.2148437500,83,140.0000000000,,,
5.2167968750,83,124.0000000000,,,
5.2187500000,83,114.0000000000,,,
5.2207031250,83,122.0000000000,,,
5.2226562500,83,164.0000000000,,,
5.2246093750,83,203.0000000000,,,
5.2265625000,83,202.0000000000,,,
5.2285156250,83,189.0000000000,,,
5.2304687500,83,182.0000000000,,,
5.2324218750,83,156.0000000000,,,
5.2343750000,83,147.0000000000,,,
5.2363281250,83,161.0000000000,,,
5.2382812500,83,177.0000000000,,,
5.2402343750,83,156.0000000000,,,
5.2421875000,83,117.0000000000,,,
5.2441406250,83,98.0000000000,,,
5.2460937500,83,109.0000000000,,,
5.2480468750,83,131.0000000000,,,
5.2500000000,84,134.0000000000,,,
5.2519531250,84,128.0000000000,,,
5.2539062500,84,133.0000000000,,,
5.2558593750,84,141.0000000000,,,
5.2578125000,84,139.0000000000,,,
5.2597656250,84,149.0000000000,,,
5.2617187500,84,153.0000000000,,,
5.2636718750,84,153.0000000000,,,
5.2656250000,84,161.0000000000,,,
5.2675781250,84,179.0000000000,,,
5.2695312500,84,196.0000000000,,,
5.2714843750,84,170.0000000000,,,
5.2734375000,84,115.0000000000,,,
5.2753906250,84,107.0000000000,,,
5.2773437500,84,135.0000000000,,,
5.2792968750,84,148.0000000000,,,
5.2812500000,84,141.0000000000,,,
5.2832031250,84,128.0000000000,,,
5.2851562500,84,131.0000000000,,,
5.2871093750,84,138.0000000000,,,
5.2890625000,84,129.0000000000,,,
5.2910156250,84,120.0000000000,,,
5.2929687500,84,107.0000000000,,,
5.2949218750,84,83.0000000000,,,
5.2968750000,84,59.0000000000,,,
5.2988281250,84,52.0000000000,,,
5.3007812500,84,38.0000000000,,,
5.3027343750,84,27.0000000000,,,
5.3046875000,84,35.0000000000,,,
5.3066406250,84,54.0000000000,,,
5.3085937500,84,81.0000000000,,,
5.3105468750,84,91.0000000000,,,
5.3125000000,85,77.0000000000,,,
5.3144531250,85,69.0000000000,,,
5.3164062500,85,92.0000000000,,,
5.3183593750,85,92.0000000000,,,
5.3203125000,85,66.0000000000,,,
5.3222656250,85,41.0000000000,,,
5.3242187500,85,25.0000000000,,,
5.3261718750,85,10.0000000000,,,
5.3281250000,85,9.0000000000,,,
5.3300781250,85,28.0000000000,,,
5.3320312500,85,51.0000000000,,,
5.3339843750,85,64.0000000000,,,
5.3359375000,85,73.0000000000,,,
5.3378906250,85,76.0000000000,,,
5.3398437500,85,57.0000000000,,,
5.3417968750,85,54.0000000000,,,
5.3437500000,85,75.0000000000,,,
5.3457031250,85,77.0000000000,,,
5.3476562500,85,70.0000000000,,,
5.3496093750,85,75.0000000000,,,
5.3515625000,85,100.0000000000,,,
5.3535156250,85,92.0000000000,,,
5.3554687500,85,86.0000000000,,,
5.3574218750,85,100.0000000000,,,
5.3593750000,85,136.0000000000,,,
5.3613281250,85,162.0000000000,,,
5.3632812500,85,157.0000000000,,,
5.3652343750,85,182.0000000000,,,
5.3671875000,85,197.0000000000,,,
5.3691406250,85,153.0000000000,,,
5.3710937500,85,121.0000000000,,,
5.3730468750,85,134.0000000000,,,
5.3750000000,86,124.0000000000,,,
5.3769531250,86,80.0000000000,,,
5.3789062500,86,57.0000000000,,,
5.3808593750,86,66.0000000000,,,
5.3828125000,86,83.0000000000,,,
5.3847656250,86,92.0000000000,,,
5.3867187500,86,93.0000000000,,,
5.3886718750,86,82.0000000000,,,
5.3906250000,86,54.0000000000,,,
5.3925781250,86,36.0000000000,,,
5.3945312500,86,40.0000000000,,,
5.3964843750,86,34.0000000000,,,
5.3984375000,86,16.0000000000,,,
5.4003906250,86,12.0000000000,,,
5.4023437500,86,16.0000000000,,,
5.4042968750,86,20.0000000000,,,
5.4062500000,86,18.0000000000,,,
5.4082031250,86,1.0000000000,,,
5.4101562500,86,-6.0000000000,,,
5.4121093750,86,-1.0000000000,,,
5.4140625000,86,9.0000000000,,,
5.4160156250,86,8.0000000000,,,
5.4179687500,86,-23.0000000000,,,
5.4199218750,86,-52.0000000000,,,
5.4218750000,86,-36.0000000000,,,
5.4238281250,86,5.0000000000,,,
5.4257812500,86,-2.0000000000,,,
5.4277343750,86,-44.0000000000,,,
5.4296875000,86,-77.0000000000,,,
5.4316406250,86,-50.0000000000,,,
5.4335937500,86,-26.0000000000,,,
5.4355468750,86,-44.0000000000,,,
5.4375000000,87,-65.0000000000,,,
5.4394531250,87,-77.0000000000,,,
5.4414062500,87,-67.0000000000,,,
5.4433593750,87,-54.0000000000,,,
5.4453125000,87,-53.0000000000,,,
5.4472656250,87,-61.0000000000,,,
5.4492187500,87,-88.0000000000,,,
5.4511718750,87,-72.0000000000,,,
5.4531250000,87,-30.0000000000,,,
5.4550781250,87,-9.0000000000,,,
5.4570312500,87,-3.0000000000,,,
5.4589843750,87,-12.0000000000,,,
5.4609375000,87,-12.0000000000,,,
5.4628906250,87,-26.0000000000,,,
5.4648437500,87,-70.0000000000,,,
5.4667968750,87,-81.0000000000,,,
5.4687500000,87,-38.0000000000,,,
5.4707031250,87,0.0000000000,,,
5.4726562500,87,-8.0000000000,,,
5.4746093750,87,-28.0000000000,,,
5.4765625000,87,-55.0000000000,,,
5.4785156250,87,-50.0000000000,,,
5.4804687500,87,-18.0000000000,,,
5.4824218750,87,-4.0000000000,,,
5.4843750000,87,-7.0000000000,,,
5.4863281250,87,-1.0000000000,,,
5.4882812500,87,-7.0000000000,,,
5.4902343750,87,3.0000000000,,,
5.4921875000,87,38.0000000000,,,
5.4941406250,87,51.0000000000,,,
5.4960937500,87,51.0000000000,,,
5.4980468750,87,44.0000000000,,,
5.5000000000,88,27.0000000000,,,
5.5019531250,88,7.0000000000,,,
5.5039062500,88,-14.0000000000,,,
5.5058593750,88,-34.0000000000,,,
5.5078125000,88,-26.0000000000,,,
5.5097656250,88,-10.0000000000,,,
5.5117187500,88,-13.0000000000,,,
5.5136718750,88,-6.0000000000,,,
5.5156250000,88,10.0000000000,,,
5.5175781250,88,16.0000000000,,,
5.5195312500,88,13.0000000000,,,
5.5214843750,88,40.0000000000,,,
5.5234375000,88,84.0000000000,,,
5.5253906250,88,55.0000000000,,,
5.5273437500,88,7.0000000000,,,
5.5292968750,88,16.0000000000,,,
5.5312500000,88,67.0000000000,,,
5.5332031250,88,91.0000000000,,,
5.5351562500,88,84.0000000000,,,
5.5371093750,88,81.0000000000,,,
5.5390625000,88,11.0000000000,,,
5.5410156250,88,-91.0000000000,,,
5.5429687500,88,-115.0000000000,,,
5.5449218750,88,-77.0000000000,,,
5.5468750000,88,-27.0000000000,,,
5.5488281250,88,18.0000000000,,,
5.5507812500,88,43.0000000000,,,
5.5527343750,88,21.0000000000,,,
5.5546875000,88,8.0000000000,,,
5.5566406250,88,44.0000000000,,,
5.5585937500,88,100.0000000000,,,
5.5605468750,88,129.0000000000,,,
5.5625000000,89,118.0000000000,,,
5.5644531250,89,55.0000000000,,,
5.5664062500,89,-7.0000000000,,,
5.5683593750,89,9.0000000000,,,
5.5703125000,89,51.0000000000,,,
5.5722656250,89,59.0000000000,,,
5.5742187500,89,37.0000000000,,,
5.5761718750,89,25.0000000000,,,
5.5781250000,89,59.0000000000,,,
5.5800781250,89,69.0000000000,,,
5.5820312500,89,35.0000000000,,,
5.5839843750,89,-22.0000000000,,,
5.5859375000,89,-44.0000000000,,,
5.5878906250,89,-34.0000000000,,,
5.5898437500,89,-12.0000000000,,,
5.5917968750,89,10.0000000000,,,
5.5937500000,89,20.0000000000,,,
5.5957031250,89,-1.0000000000,,,
5.5976562500,89,-26.0000000000,,,
5.5996093750,89,-36.0000000000,,,
5.6015625000,89,-22.0000000000,,,
5.6035156250,89,7.0000000000,,,
5.6054687500,89,18.0000000000,,,
5.6074218750,89,-1.0000000000,,,
5.6093750000,89,5.0000000000,,,
5.6113281250,89,26.0000000000,,,
5.6132812500,89,42.0000000000,,,
5.6152343750,89,48.0000000000,,,
5.6171875000,89,43.0000000000,,,
5.6191406250,89,26.0000000000,,,
5.6210937500,89,12.0000000000,,,
5.6230468750,89,-7.0000000000,,,
5.6250000000,90,-22.0000000000,,,
5.6269531250,90,-9.0000000000,,,
5.6289062500,90,-10.0000000000,,,
5.6308593750,90,-13.0000000000,,,
5.6328125000,90,0.0000000000,,,
5.6347656250,90,11.0000000000,,,
5.6367187500,90,3.0000000000,,,
5.6386718750,90,19.0000000000,,,
5.6406250000,90,34.0000000000,,,
5.6425781250,90,42.0000000000,,,
5.6445312500,90,49.0000000000,,,
5.6464843750,90,35.0000000000,,,
5.6484375000,90,18.0000000000,,,
5.6503906250,90,19.0000000000,,,
5.6523437500,90,45.0000000000,,,
5.6542968750,90,81.0000000000,,,
5.6562500000,90,68.0000000000,,,
5.6582031250,90,33.0000000000,,,
5.6601562500,90,16.0000000000,,,
5.6621093750,90,33.0000000000,,,
5.6640625000,90,37.0000000000,,,
5.6660156250,90,41.0000000000,,,
5.6679687500,90,44.0000000000,,,
5.6699218750,90,60.0000000000,,,
5.6718750000,90,71.0000000000,,,
5.6738281250,90,55.0000000000,,,
5.6757812500,90,35.0000000000,,,
5.6777343750,90,28.0000000000,,,
5.6796875000,90,36.0000000000,,,
5.6816406250,90,36.0000000000,,,
5.6835937500,90,39.0000000000,,,
5.6855468750,90,27.0000000000,,,
5.6875000000,91,-10.0000000000,,,
5.6894531250,91,-42.0000000000,,,
5.6914062500,91,-34.0000000000,,,
5.6933593750,91,-5.0000000000,,,
5.6953125000,91,6.0000000000,,,
5.6972656250,91,19.0000000000,,,
5.6992187500,91,33.0000000000,,,
5.7011718750,91,49.0000000000,,,
5.7031250000,91,82.0000000000,,,
5.7050781250,91,138.0000000000,,,
5.7070312500,91,148.0000000000,,,
5.7089843750,91,105.0000000000,,,
5.7109375000,91,115.0000000000,,,
5.7128906250,91,139.0000000000,,,
5.7148437500,91,161.0000000000,,,
5.7167968750,91,163.0000000000,,,
5.7187500000,91,136.0000000000,,,
5.7207031250,91,107.0000000000,,,
5.7226562500,91,100.0000000000,,,
5.7246093750,91,133.0000000000,,,
5.7265625000,91,151.0000000000,,,
5.7285156250,91,129.0000000000,,,
5.7304687500,91,119.0000000000,,,
5.7324218750,91,145.0000000000,,,
5.7343750000,91,131.0000000000,,,
5.7363281250,91,104.0000000000,,,
5.7382812500,91,96.0000000000,,,
5.7402343750,91,88.0000000000,,,
5.7421875000,91,96.0000000000,,,
5.7441406250,91,77.0000000000,,,
5.7460937500,91,18.0000000000,,,
5.7480468750,91,-13.0000000000,,,
5.7500000000,92,2.0000000000,,,
5.7519531250,92,10.0000000000,,,
5.7539062500,92,5.0000000000,,,
5.7558593750,92,10.0000000000,,,
5.7578125000,92,8.0000000000,,,
5.7597656250,92,-23.0000000000,,,
5.7617187500,92,-44.0000000000,,,
5.7636718750,92,-25.0000000000,,,
5.7656250000,92,18.0000000000,,,
5.7675781250,92,37.0000000000,,,
5.7695312500,92,-14.0000000000,,,
5.7714843750,92,-58.0000000000,,,
5.7734375000,92,-56.0000000000,,,
5.7753906250,92,-35.0000000000,,,
5.7773437500,92,3.0000000000,,,
5.7792968750,92,28.0000000000,,,
5.7812500000,92,37.0000000000,,,
5.7832031250,92,17.0000000000,,,
5.7851562500,92,-14.0000000000,,,
5.7871093750,92,-8.0000000000,,,
5.7890625000,92,42.0000000000,,,
5.7910156250,92,100.0000000000,,,
5.7929687500,92,76.0000000000,,,
5.7949218750,92,27.0000000000,,,
5.7968750000,92,5.0000000000,,,
5.7988281250,92,20.0000000000,,,
5.8007812500,92,69.0000000000,,,
5.8027343750,92,81.0000000000,,,
5.8046875000,92,56.0000000000,,,
5.8066406250,92,37.0000000000,,,
5.8085937500,92,42.0000000000,,,
5.8105468750,92,25.0000000000,,,
5.8125000000,93,17.0000000000,,,
5.8144531250,93,54.0000000000,,,
5.8164062500,93,68.0000000000,,,
5.8183593750,93,32.0000000000,,,
5.8203125000,93,18.0000000000,,,
5.8222656250,93,35.0000000000,,,
5.8242187500,93,42.0000000000,,,
5.8261718750,93,65.0000000000,,,
5.8281250000,93,100.0000000000,,,
5.8300781250,93,106.0000000000,,,
5.8320312500,93,64.0000000000,,,
5.8339843750,93,45.0000000000,,,
5.8359375000,93,12.0000000000,,,
5.8378906250,93,20.0000000000,,,
5.8398437500,93,48.0000000000,,,
5.8417968750,93,41.0000000000,,,
5.8437500000,93,42.0000000000,,,
5.8457031250,93,65.0000000000,,,
5.8476562500,93,83.0000000000,,,
5.8496093750,93,76.0000000000,,,
5.8515625000,93,58.0000000000,,,
5.8535156250,93,33.0000000000,,,
5.8554687500,93,56.0000000000,,,
5.8574218750,93,83.0000000000,,,
5.8593750000,93,44.0000000000,,,
5.8613281250,93,-1.0000000000,,,
5.8632812500,93,-21.0000000000,,,
5.8652343750,93,-22.0000000000,,,
5.8671875000,93,7.0000000000,,,
5.8691406250,93,32.0000000000,,,
5.8710937500,93,54.0000000000,,,
5.8730468750,93,59.0000000000,,,
5.8750000000,94,32.0000000000,,,
5.8769531250,94,-8.0000000000,,,
5.8789062500,94,-26.0000000000,,,
5.8808593750,94,-24.0000000000,,,
5.8828125000,94,6.0000000000,,,
5.8847656250,94,72.0000000000,,,
5.8867187500,94,106.0000000000,,,
5.8886718750,94,72.0000000000,,,
5.8906250000,94,35.0000000000,,,
5.8925781250,94,25.0000000000,,,
5.8945312500,94,38.0000000000,,,
5.8964843750,94,72.0000000000,,,
5.8984375000,94,118.0000000000,,,
5.9003906250,94,105.0000000000,,,
5.9023437500,94,29.0000000000,,,
5.9042968750,94,-13.0000000000,,,
5.9062500000,94,-8.0000000000,,,
5.9082031250,94,24.0000000000,,,
5.9101562500,94,36.0000000000,,,
5.9121093750,94,24.0000000000,,,
5.9140625000,94,5.0000000000,,,
5.9160156250,94,-10.0000000000,,,
5.9179687500,94,16.0000000000,,,
5.9199218750,94,73.0000000000,,,
5.9218750000,94,115.0000000000,,,
5.9238281250,94,104.0000000000,,,
5.9257812500,94,83.0000000000,,,
5.9277343750,94,84.0000000000,,,
5.9296875000,94,75.0000000000,,,
5.9316406250,94,43.0000000000,,,
5.9335937500,94,5.0000000000,,,
5.9355468750,94,-13.0000000000,,,
5.9375000000,95,-6.0000000000,,,
5.9394531250,95,34.0000000000,,,
5.9414062500,95,71.0000000000,,,
5.9433593750,95,44.0000000000,,,
5.9453125000,95,-6.0000000000,,,
5.9472656250,95,-11.0000000000,,,
5.9492187500,95,39.0000000000,,,
5.9511718750,95,85.0000000000,,,
5.9531250000,95,90.0000000000,,,
5.9550781250,95,69.0000000000,,,
5.9570312500,95,7.0000000000,,,
5.9589843750,95,-66.0000000000,,,
5.9609375000,95,-91.0000000000,,,
5.9628906250,95,-44.0000000000,,,
5.9648437500,95,21.0000000000,,,
5.9667968750,95,69.0000000000,,,
5.9687500000,95,92.0000000000,,,
5.9707031250,95,84.0000000000,,,
5.9726562500,95,80.0000000000,,,
5.9746093750,95,116.0000000000,,,
5.9765625000,95,155.0000000000,,,
5.9785156250,95,156.0000000000,,,
5.9804687500,95,130.0000000000,,,
5.9824218750,95,82.0000000000,,,
5.9843750000,95,40.0000000000,,,
5.9863281250,95,21.0000000000,,,
5.9882812500,95,36.0000000000,,,
5.9902343750,95,76.0000000000,,,
5.9921875000,95,97.0000000000,,,
5.9941406250,95,93.0000000000,,,
5.9960937500,95,80.0000000000,,,
5.9980468750,95,53.0000000000,,,
6.0000000000,96,42.0000000000,,,
6.0019531250,96,59.0000000000,,,
6.0039062500,96,80.0000000000,,,
6.0058593750,96,70.0000000000,,,
6.0078125000,96,23.0000000000,,,
6.0097656250,96,-28.0000000000,,,
6.0117187500,96,-41.0000000000,,,
6.0136718750,96,-14.0000000000,,,
6.0156250000,96,-4.0000000000,,,
6.0175781250,96,-18.0000000000,,,
6.0195312500,96,-41.0000000000,,,
6.0214843750,96,-69.0000000000,,,
6.0234375000,96,-82.0000000000,,,
6.0253906250,96,-65.0000000000,,,
6.0273437500,96,-43.0000000000,,,
6.0292968750,96,-45.0000000000,,,
6.0312500000,96,-58.0000000000,,,
6.0332031250,96,-73.0000000000,,,
6.0351562500,96,-70.0000000000,,,
6.0371093750,96,-61.0000000000,,,
6.0390625000,96,-57.0000000000,,,
6.0410156250,96,-51.0000000000,,,
6.0429687500,96,-45.0000000000,,,
6.0449218750,96,-45.0000000000,,,
6.0468750000,96,-43.0000000000,,,
6.0488281250,96,-30.0000000000,,,
6.0507812500,96,-39.0000000000,,,
6.0527343750,96,-53.0000000000,,,
6.0546875000,96,-76.0000000000,,,
6.0566406250,96,-92.0000000000,,,
6.0585937500,96,-82.0000000000,,,
6.0605468750,96,-57.0000000000,,,
6.0625000000,97,-44.0000000000,,,
6.0644531250,97,-33.0000000000,,,
6.0664062500,97,-27.0000000000,,,
6.0683593750,97,-36.0000000000,,,
6.0703125000,97,-59.0000000000,,,
6.0722656250,97,-74.0000000000,,,
6.0742187500,97,-66.0000000000,,,
6.0761718750,97,-45.0000000000,,,
6.0781250000,97,-38.0000000000,,,
6.0800781250,97,-24.0000000000,,,
6.0820312500,97,-6.0000000000,,,
6.0839843750,97,-2.0000000000,,,
6.0859375000,97,5.0000000000,,,
6.0878906250,97,7.0000000000,,,
6.0898437500,97,9.0000000000,,,
6.0917968750,97,21.0000000000,,,
6.0937500000,97,26.0000000000,,,
6.0957031250,97,24.0000000000,,,
6.0976562500,97,35.0000000000,,,
6.0996093750,97,59.0000000000,,,
6.1015625000,97,71.0000000000,,,
6.1035156250,97,86.0000000000,,,
6.1054687500,97,91.0000000000,,,
6.1074218750,97,85.0000000000,,,
6.1093750000,97,80.0000000000,,,
6.1113281250,97,85.0000000000,,,
6.1132812500,97,100.0000000000,,,
6.1152343750,97,103.0000000000,,,
6.1171875000,97,91.0000000000,,,
6.1191406250,97,83.0000000000,,,
6.1210937500,97,87.0000000000,,,
6.1230468750,97,88.0000000000,,,
6.1250000000,98,91.0000000000,,,
6.1269531250,98,101.0000000000,,,
6.1289062500,98,118.0000000000,,,
6.1308593750,98,123.0000000000,,,
6.1328125000,98,107.0000000000,,,
6.1347656250,98,88.0000000000,,,
6.1367187500,98,80.0000000000,,,
6.1386718750,98,85.0000000000,,,
6.1406250000,98,106.0000000000,,,
6.1425781250,98,122.0000000000,,,
6.1445312500,98,112.0000000000,,,
6.1464843750,98,85.0000000000,,,
6.1484375000,98,76.0000000000,,,
6.1503906250,98,85.0000000000,,,
6.1523437500,98,91.0000000000,,,
6.1542968750,98,96.0000000000,,,
6.1562500000,98,98.0000000000,,,
6.1582031250,98,105.0000000000,,,
6.1601562500,98,103.0000000000,,,
6.1621093750,98,98.0000000000,,,
6.1640625000,98,97.0000000000,,,
6.1660156250,98,97.0000000000,,,
6.1679687500,98,90.0000000000,,,
6.1699218750,98,81.0000000000,,,
6.1718750000,98,72.0000000000,,,
6.1738281250,98,80.0000000000,,,
6.1757812500,98,106.0000000000,,,
6.1777343750,98,122.0000000000,,,
6.1796875000,98,106.0000000000,,,
6.1816406250,98,91.0000000000,,,
6.1835937500,98,87.0000000000,,,
6.1855468750,98,80.0000000000,,,
6.1875000000,99,64.0000000000,33553,6.1875000000,0.0019531250
6.1894531250,99,64.0000000000,33553:33554,6.1875000000:6.1894531250,0.0019531250:0.0000000000
6.1914062500,99,55.0000000000,,,
6.1933593750,99,51.0000000000,,,
6.1953125000,99,54.0000000000,,,
6.1972656250,99,70.0000000000,,,
6.1992187500,99,69.0000000000,,,
6.2011718750,99,20.0000000000,,,
6.2031250000,99,-26.0000000000,,,
6.2050781250,99,-36.0000000000,,,
6.2070312500,99,-36.0000000000,,,
6.2089843750,99,-41.0000000000,,,
6.2109375000,99,-55.0000000000,,,
6.2128906250,99,-54.0000000000,,,
6.2148437500,99,-51.0000000000,,,
6.2167968750,99,-60.0000000000,,,
6.2187500000,99,-55.0000000000,,,
6.2207031250,99,-39.0000000000,,,
6.2226562500,99,-33.0000000000,,,
6.2246093750,99,-41.0000000000,,,
6.2265625000,99,-53.0000000000,,,
6.2285156250,99,-52.0000000000,,,
6.2304687500,99,-43.0000000000,,,
6.2324218750,99,-37.0000000000,,,
6.2343750000,99,-34.0000000000,,,
6.2363281250,99,-26.0000000000,,,
6.2382812500,99,2.0000000000,,,
6.2402343750,99,35.0000000000,,,
6.2421875000,99,50.0000000000,,,
6.2441406250,99,54.0000000000,,,
6.2460937500,99,57.0000000000,,,
6.2480468750,99,58.0000000000,,,
6.2500000000,100,49.0000000000,,,
6.2519531250,100,35.0000000000,,,
6.2539062500,100,38.0000000000,,,
6.2558593750,100,58.0000000000,,,
6.2578125000,100,75.0000000000,,,
6.2597656250,100,76.0000000000,,,
6.2617187500,100,72.0000000000,,,
6.2636718750,100,81.0000000000,,,
6.2656250000,100,105.0000000000,,,
6.2675781250,100,119.0000000000,,,
6.2695312500,100,108.0000000000,,,
6.2714843750,100,85.0000000000,,,
6.2734375000,100,84.0000000000,,,
6.2753906250,100,96.0000000000,,,
6.2773437500,100,86.0000000000,,,
6.2792968750,100,72.0000000000,,,
6.2812500000,100,71.0000000000,,,
6.2832031250,100,73.0000000000,,,
6.2851562500,100,82.0000000000,,,
6.2871093750,100,87.0000000000,,,
6.2890625000,100,98.0000000000,,,
6.2910156250,100,112.0000000000,,,
6.2929687500,100,120.0000000000,,,
6.2949218750,100,121.0000000000,,,
6.2968750000,100,112.0000000000,,,
6.2988281250,100,113.0000000000,,,
6.3007812500,100,122.0000000000,,,
6.3027343750,100,135.0000000000,,,
6.3046875000,100,133.0000000000,,,
6.3066406250,100,120.0000000000,,,
6.3085937500,100,122.0000000000,,,
6.3105468750,100,134.0000000000,,,
6.3125000000,101,133.0000000000,,,
6.3144531250,101,123.0000000000,,,
6.3164062500,101,129.0000000000,,,
6.3183593750,101,136.0000000000,,,
6.3203125000,101,145.0000000000,,,
6.3222656250,101,150.0000000000,,,
6.3242187500,101,138.0000000000,,,
6.3261718750,101,123.0000000000,,,
6.3281250000,101,117.0000000000,,,
6.3300781250,101,106.0000000000,,,
6.3320312500,101,97.0000000000,,,
6.3339843750,101,97.0000000000,,,
6.3359375000,101,104.0000000000,,,
6.3378906250,101,119.0000000000,,,
6.3398437500,101,124.0000000000,,,
6.3417968750,101,115.0000000000,,,
6.3437500000,101,88.0000000000,,,
6.3457031250,101,67.0000000000,,,
6.3476562500,101,66.0000000000,,,
6.3496093750,101,75.0000000000,,,
6.3515625000,101,82.0000000000,,,
6.3535156250,101,87.0000000000,,,
6.3554687500,101,104.0000000000,,,
6.3574218750,101,105.0000000000,,,
6.3593750000,101,88.0000000000,,,
6.3613281250,101,77.0000000000,,,
6.3632812500,101,70.0000000000,,,
6.3652343750,101,67.0000000000,,,
6.3671875000,101,58.0000000000,,,
6.3691406250,101,42.0000000000,,,
6.3710937500,101,38.0000000000,,,
6.3730468750,101,53.0000000000,,,
6.3750000000,102,64.0000000000,,,
6.3769531250,102,66.0000000000,33553,6.3769531250,0.0019531250
6.3789062500,102,66.0000000000,33554,6.3789062500,0.0000000000
6.3808593750,102,68.0000000000,,,
6.3828125000,102,69.0000000000,,,
6.3847656250,102,64.0000000000,,,
6.3867187500,102,45.0000000000,,,
6.3886718750,102,28.0000000000,,,
6.3906250000,102,27.0000000000,,,
6.3925781250,102,29.0000000000,,,
6.3945312500,102,22.0000000000,,,
6.3964843750,102,8.0000000000,,,
6.3984375000,102,4.0000000000,,,
6.4003906250,102,7.0000000000,,,
6.4023437500,102,6.0000000000,,,
6.4042968750,102,12.0000000000,,,
6.4062500000,102,5.0000000000,,,
6.4082031250,102,-13.0000000000,,,
6.4101562500,102,-21.0000000000,,,
6.4121093750,102,-20.0000000000,,,
6.4140625000,102,-22.0000000000,,,
6.4160156250,102,-27.0000000000,,,
6.4179687500,102,-27.0000000000,,,
6.4199218750,102,-24.0000000000,,,
6.4218750000,102,-13.0000000000,,,
6.4238281250,102,-18.0000000000,,,
6.4257812500,102,-24.0000000000,,,
6.4277343750,102,-8.0000000000,,,
6.4296875000,102,18.0000000000,,,
6.4316406250,102,28.0000000000,,,
6.4335937500,102,28.0000000000,,,
6.4355468750,102,32.0000000000,,,
6.4375000000,103,23.0000000000,,,
6.4394531250,103,9.0000000000,,,
6.4414062500,103,-9.0000000000,,,
6.4433593750,103,-37.0000000000,,,
6.4453125000,103,-43.0000000000,,,
6.4472656250,103,-37.0000000000,,,
6.4492187500,103,-30.0000000000,,,
6.4511718750,103,-35.0000000000,,,
6.4531250000,103,-28.0000000000,,,
6.4550781250,103,-1.0000000000,,,
6.4570312500,103,49.0000000000,,,
6.4589843750,103,89.0000000000,,,
6.4609375000,103,107.0000000000,,,
6.4628906250,103,98.0000000000,,,
6.4648437500,103,85.0000000000,,,
6.4667968750,103,91.0000000000,,,
6.4687500000,103,101.0000000000,,,
6.4707031250,103,91.0000000000,,,
6.4726562500,103,90.0000000000,,,
6.4746093750,103,102.0000000000,,,
6.4765625000,103,90.0000000000,,,
6.4785156250,103,70.0000000000,,,
6.4804687500,103,73.0000000000,,,
6.4824218750,103,86.0000000000,,,
6.4843750000,103,89.0000000000,,,
6.4863281250,103,75.0000000000,,,
6.4882812500,103,66.0000000000,,,
6.4902343750,103,64.0000000000,,,
6.4921875000,103,58.0000000000,,,
6.4941406250,103,40.0000000000,,,
6.4960937500,103,9.0000000000,,,
6.4980468750,103,-2.0000000000,,,
6.5000000000,104,6.0000000000,,,
6.5019531250,104,28.0000000000,,,
6.5039062500,104,56.0000000000,,,
6.5058593750,104,68.0000000000,,,
6.5078125000,104,67.0000000000,,,
6.5097656250,104,83.0000000000,,,
6.5117187500,104,102.0000000000,,,
6.5136718750,104,90.0000000000,,,
6.5156250000,104,51.0000000000,,,
6.5175781250,104,34.0000000000,,,
6.5195312500,104,42.0000000000,,,
6.5214843750,104,60.0000000000,,,
6.5234375000,104,57.0000000000,,,
6.5253906250,104,56.0000000000,,,
6.5273437500,104,81.0000000000,,,
6.5292968750,104,101.0000000000,,,
6.5312500000,104,85.0000000000,,,
6.5332031250,104,44.0000000000,,,
6.5351562500,104,36.0000000000,,,
6.5371093750,104,43.0000000000,,,
6.5390625000,104,49.0000000000,,,
6.5410156250,104,55.0000000000,,,
6.5429687500,104,45.0000000000,,,
6.5449218750,104,32.0000000000,,,
6.5468750000,104,54.0000000000,,,
6.5488281250,104,74.0000000000,,,
6.5507812500,104,69.0000000000,,,
6.5527343750,104,40.0000000000,,,
6.5546875000,104,-8.0000000000,,,
6.5566406250,104,-36.0000000000,,,
6.5585937500,104,-24.0000000000,,,
6.5605468750,104,11.0000000000,,,
6.5625000000,105,37.0000000000,,,
6.5644531250,105,23.0000000000,,,
6.5664062500,105,13.0000000000,,,
6.5683593750,105,36.0000000000,,,
6.5703125000,105,64.0000000000,,,
6.5722656250,105,68.0000000000,,,
6.5742187500,105,50.0000000000,,,
6.5761718750,105,21.0000000000,,,
6.5781250000,105,21.0000000000,,,
6.5800781250,105,59.0000000000,,,
6.5820312500,105,100.0000000000,,,
6.5839843750,105,106.0000000000,,,
6.5859375000,105,77.0000000000,,,
6.5878906250,105,58.0000000000,,,
6.5898437500,105,66.0000000000,,,
6.5917968750,105,72.0000000000,,,
6.5937500000,105,80.0000000000,,,
6.5957031250,105,76.0000000000,,,
6.5976562500,105,72.0000000000,,,
6.5996093750,105,83.0000000000,,,
6.6015625000,105,72.0000000000,,,
6.6035156250,105,45.0000000000,,,
6.6054687500,105,29.0000000000,,,
6.6074218750,105,44.0000000000,,,
6.6093750000,105,53.0000000000,,,
6.6113281250,105,41.0000000000,,,
6.6132812500,105,29.0000000000,,,
6.6152343750,105,34.0000000000,,,
6.6171875000,105,38.0000000000,,,
6.6191406250,105,43.0000000000,,,
6.6210937500,105,65.0000000000,,,
6.6230468750,105,82.0000000000,,,
6.6250000000,106,77.0000000000,,,
6.6269531250,106,72.0000000000,,,
6.6289062500,106,75.0000000000,,,
6.6308593750,106,75.0000000000,,,
6.6328125000,106,55.0000000000,,,
6.6347656250,106,43.0000000000,,,
6.6367187500,106,44.0000000000,,,
6.6386718750,106,42.0000000000,,,
6.6406250000,106,38.0000000000,,,
6.6425781250,106,19.0000000000,,,
6.6445312500,106,5.0000000000,,,
6.6464843750,106,19.0000000000,,,
6.6484375000,106,36.0000000000,,,
6.6503906250,106,27.0000000000,,,
6.6523437500,106,8.0000000000,,,
6.6542968750,106,0.0000000000,,,
6.6562500000,106,32.0000000000,,,
6.6582031250,106,67.0000000000,,,
6.6601562500,106,71.0000000000,,,
6.6621093750,106,60.0000000000,,,
6.6640625000,106,49.0000000000,,,
6.6660156250,106,51.0000000000,,,
6.6679687500,106,73.0000000000,,,
6.6699218750,106,82.0000000000,,,
6.6718750000,106,77.0000000000,,,
6.6738281250,106,82.0000000000,,,
6.6757812500,106,72.0000000000,,,
6.6777343750,106,50.0000000000,,,
6.6796875000,106,39.0000000000,,,
6.6816406250,106,68.0000000000,,,
6.6835937500,106,112.0000000000,,,
6.6855468750,106,131.0000000000,,,
6.6875000000,107,123.0000000000,,,
6.6894531250,107,108.0000000000,,,
6.6914062500,107,98.0000000000,,,
6.6933593750,107,83.0000000000,,,
6.6953125000,107,74.0000000000,,,
6.6972656250,107,75.0000000000,,,
6.6992187500,107,69.0000000000,,,
6.7011718750,107,48.0000000000,,,
6.7031250000,107,41.0000000000,,,
6.7050781250,107,56.0000000000,,,
6.7070312500,107,71.0000000000,,,
6.7089843750,107,80.0000000000,,,
6.7109375000,107,82.0000000000,,,
6.7128906250,107,74.0000000000,,,
6.7148437500,107,55.0000000000,,,
6.7167968750,107,34.0000000000,,,
6.7187500000,107,28.0000000000,,,
6.7207031250,107,39.0000000000,,,
6.7226562500,107,60.0000000000,,,
6.7246093750,107,83.0000000000,,,
6.7265625000,107,103.0000000000,,,
6.7285156250,107,88.0000000000,,,
6.7304687500,107,55.0000000000,,,
6.7324218750,107,34.0000000000,,,
6.7343750000,107,28.0000000000,,,
6.7363281250,107,42.0000000000,,,
6.7382812500,107,51.0000000000,,,
6.7402343750,107,37.0000000000,,,
6.7421875000,107,25.0000000000,,,
6.7441406250,107,43.0000000000,,,
6.7460937500,107,67.0000000000,,,
6.7480468750,107,66.0000000000,,,
6.7500000000,108,57.0000000000,,,
6.7519531250,108,57.0000000000,,,
6.7539062500,108,59.0000000000,,,
6.7558593750,108,60.0000000000,,,
6.7578125000,108,64.0000000000,,,
6.7597656250,108,50.0000000000,,,
6.7617187500,108,37.0000000000,,,
6.7636718750,108,38.0000000000,,,
6.7656250000,108,44.0000000000,,,
6.7675781250,108,38.0000000000,,,
6.7695312500,108,49.0000000000,,,
6.7714843750,108,73.0000000000,,,
6.7734375000,108,87.0000000000,,,
6.7753906250,108,60.0000000000,,,
6.7773437500,108,33.0000000000,,,
6.7792968750,108,39.0000000000,,,
6.7812500000,108,69.0000000000,,,
6.7832031250,108,84.0000000000,,,
6.7851562500,108,75.0000000000,,,
6.7871093750,108,60.0000000000,,,
6.7890625000,108,48.0000000000,,,
6.7910156250,108,50.0000000000,,,
6.7929687500,108,66.0000000000,,,
6.7949218750,108,80.0000000000,,,
6.7968750000,108,83.0000000000,,,
6.7988281250,108,91.0000000000,,,
6.8007812500,108,86.0000000000,,,
6.8027343750,108,69.0000000000,,,
6.8046875000,108,64.0000000000,,,
6.8066406250,108,72.0000000000,,,
6.8085937500,108,68.0000000000,,,
6.8105468750,108,54.0000000000,,,
6.8125000000,109,50.0000000000,,,
6.8144531250,109,61.0000000000,,,
6.8164062500,109,90.0000000000,,,
6.8183593750,109,83.0000000000,,,
6.8203125000,109,59.0000000000,,,
6.8222656250,109,53.0000000000,,,
6.8242187500,109,52.0000000000,,,
6.8261718750,109,40.0000000000,,,
6.8281250000,109,21.0000000000,,,
6.8300781250,109,24.0000000000,,,
6.8320312500,109,41.0000000000,,,
6.8339843750,109,53.0000000000,,,
6.8359375000,109,66.0000000000,,,
6.8378906250,109,73.0000000000,,,
6.8398437500,109,81.0000000000,,,
6.8417968750,109,84.0000000000,,,
6.8437500000,109,74.0000000000,,,
6.8457031250,109,67.0000000000,,,
6.8476562500,109,73.0000000000,,,
6.8496093750,109,70.0000000000,,,
6.8515625000,109,64.0000000000,,,
6.8535156250,109,68.0000000000,,,
6.8554687500,109,61.0000000000,,,
6.8574218750,109,55.0000000000,,,
6.8593750000,109,67.0000000000,,,
6.8613281250,109,76.0000000000,,,
6.8632812500,109,69.0000000000,,,
6.8652343750,109,52.0000000000,,,
6.8671875000,109,43.0000000000,,,
6.8691406250,109,32.0000000000,,,
6.8710937500,109,25.0000000000,,,
6.8730468750,109,38.0000000000,,,
6.8750000000,110,55.0000000000,,,
6.8769531250,110,43.0000000000,,,
6.8789062500,110,18.0000000000,,,
6.8808593750,110,6.0000000000,,,
6.8828125000,110,25.0000000000,,,
6.8847656250,110,53.0000000000,,,
6.8867187500,110,68.0000000000,,,
6.8886718750,110,65.0000000000,,,
6.8906250000,110,60.0000000000,,,
6.8925781250,110,65.0000000000,,,
6.8945312500,110,65.0000000000,,,
6.8964843750,110,64.0000000000,,,
6.8984375000,110,66.0000000000,,,
6.9003906250,110,68.0000000000,,,
6.9023437500,110,58.0000000000,,,
6.9042968750,110,41.0000000000,,,
6.9062500000,110,36.0000000000,,,
6.9082031250,110,35.0000000000,,,
6.9101562500,110,33.0000000000,,,
6.9121093750,110,28.0000000000,,,
6.9140625000,110,16.0000000000,,,
6.9160156250,110,22.0000000000,,,
6.9179687500,110,39.0000000000,,,
6.9199218750,110,37.0000000000,,,
6.9218750000,110,11.0000000000,,,
6.9238281250,110,-8.0000000000,,,
6.9257812500,110,1.0000000000,,,
6.9277343750,110,22.0000000000,,,
6.9296875000,110,39.0000000000,,,
6.9316406250,110,54.0000000000,,,
6.9335937500,110,53.0000000000,,,
6.9355468750,110,28.0000000000,,,
6.9375000000,111,20.0000000000,,,
6.9394531250,111,26.0000000000,,,
6.9414062500,111,33.0000000000,,,
6.9433593750,111,34.0000000000,,,
6.9453125000,111,40.0000000000,,,
6.9472656250,111,44.0000000000,,,
6.9492187500,111,40.0000000000,,,
6.9511718750,111,38.0000000000,,,
6.9531250000,111,35.0000000000,,,
6.9550781250,111,35.0000000000,,,
6.9570312500,111,36.0000000000,,,
6.9589843750,111,36.0000000000,,,
6.9609375000,111,27.0000000000,,,
6.9628906250,111,26.0000000000,,,
