Time:512Hz,Epoch,Electrode,Event Id,Event Date,Event Duration
0.0000000000,0,-1.0000000000,,,
0.0019531250,0,8.0000000000,,,
0.0039062500,0,19.0000000000,,,
0.0058593750,0,28.0000000000,,,
0.0078125000,0,33.0000000000,,,
0.0097656250,0,17.0000000000,,,
0.0117187500,0,0.0000000000,,,
0.0136718750,0,4.0000000000,,,
0.0156250000,0,34.0000000000,,,
0.0175781250,0,29.0000000000,,,
0.0195312500,0,-6.0000000000,,,
0.0214843750,0,-21.0000000000,,,
0.0234375000,0,1.0000000000,,,
0.0253906250,0,43.0000000000,,,
0.0273437500,0,43.0000000000,,,
0.0292968750,0,24.0000000000,,,
0.0312500000,0,38.0000000000,,,
0.0332031250,0,91.0000000000,,,
0.0351562500,0,109.0000000000,,,
0.0371093750,0,67.0000000000,,,
0.0390625000,0,28.0000000000,,,
0.0410156250,0,35.0000000000,,,
0.0429687500,0,56.0000000000,,,
0.0449218750,0,66.0000000000,,,
0.0468750000,0,67.0000000000,,,
0.0488281250,0,70.0000000000,,,
0.0507812500,0,85.0000000000,,,
0.0527343750,0,98.0000000000,,,
0.0546875000,0,104.0000000000,,,
0.0566406250,0,105.0000000000,,,
0.0585937500,0,92.0000000000,,,
0.0605468750,0,64.0000000000,,,
0.0625000000,1,35.0000000000,,,
0.0644531250,1,23.0000000000,,,
0.0664062500,1,12.0000000000,,,
0.0683593750,1,-18.0000000000,,,
0.0703125000,1,-65.0000000000,,,
0.0722656250,1,-100.0000000000,,,
0.0742187500,1,-107.0000000000,,,
0.0761718750,1,-91.0000000000,,,
0.0781250000,1,-66.0000000000,,,
0.0800781250,1,-60.0000000000,,,
0.0820312500,1,-43.0000000000,,,
0.0839843750,1,-2.0000000000,,,
0.0859375000,1,32.0000000000,,,
0.0878906250,1,35.0000000000,,,
0.0898437500,1,41.0000000000,,,
0.0917968750,1,66.0000000000,,,
0.0937500000,1,74.0000000000,,,
0.0957031250,1,83.0000000000,,,
0.0976562500,1,71.0000000000,,,
0.0996093750,1,33.0000000000,,,
0.1015625000,1,-8.0000000000,,,
0.1035156250,1,-20.0000000000,,,
0.1054687500,1,7.0000000000,,,
0.1074218750,1,86.0000000000,,,
0.1093750000,1,163.0000000000,,,
0.1113281250,1,181.0000000000,,,
0.1132812500,1,168.0000000000,,,
0.1152343750,1,167.0000000000,,,
0.1171875000,1,170.0000000000,,,
0.1191406250,1,163.0000000000,,,
0.1210937500,1,176.0000000000,,,
0.1230468750,1,198.0000000000,,,
0.1250000000,2,185.0000000000,,,
0.1269531250,2,138.0000000000,,,
0.1289062500,2,90.0000000000,,,
0.1308593750,2,69.0000000000,,,
0.1328125000,2,85.0000000000,,,
0.1347656250,2,134.0000000000,,,
0.1367187500,2,162.0000000000,,,
0.1386718750,2,136.0000000000,,,
0.1406250000,2,108.0000000000,,,
0.1425781250,2,104.0000000000,,,
0.1445312500,2,102.0000000000,,,
0.1464843750,2,101.0000000000,,,
0.1484375000,2,82.0000000000,,,
0.1503906250,2,54.0000000000,,,
0.1523437500,2,40.0000000000,,,
0.1542968750,2,18.0000000000,,,
0.1562500000,2,8.0000000000,,,
0.1582031250,2,16.0000000000,,,
0.1601562500,2,29.0000000000,,,
0.1621093750,2,52.0000000000,,,
0.1640625000,2,61.0000000000,,,
0.1660156250,2,77.0000000000,,,
0.1679687500,2,101.0000000000,,,
0.1699218750,2,100.0000000000,,,
0.1718750000,2,84.0000000000,,,
0.1738281250,2,56.0000000000,,,
0.1757812500,2,34.0000000000,,,
0.1777343750,2,38.0000000000,,,
0.1796875000,2,71.0000000000,,,
0.1816406250,2,121.0000000000,,,
0.1835937500,2,154.0000000000,,,
0.1855468750,2,157.0000000000,,,
0.1875000000,3,156.0000000000,,,
0.1894531250,3,153.0000000000,,,
0.1914062500,3,153.0000000000,,,
0.1933593750,3,146.0000000000,,,
0.1953125000,3,124.0000000000,,,
0.1972656250,3,89.0000000000,,,
0.1992187500,3,65.0000000000,,,
0.2011718750,3,71.0000000000,,,
0.2031250000,3,58.0000000000,,,
0.2050781250,3,33.0000000000,,,
0.2070312500,3,44.0000000000,,,
0.2089843750,3,85.0000000000,,,
0.2109375000,3,89.0000000000,,,
0.2128906250,3,65.0000000000,,,
0.2148437500,3,52.0000000000,,,
0.2167968750,3,60.0000000000,,,
0.2187500000,3,70.0000000000,,,
0.2207031250,3,65.0000000000,,,
0.2226562500,3,70.0000000000,,,
0.2246093750,3,96.0000000000,,,
0.2265625000,3,106.0000000000,,,
0.2285156250,3,107.0000000000,,,
0.2304687500,3,90.0000000000,,,
0.2324218750,3,67.0000000000,,,
0.2343750000,3,53.0000000000,,,
0.2363281250,3,39.0000000000,,,
0.2382812500,3,38.0000000000,,,
0.2402343750,3,49.0000000000,,,
0.2421875000,3,60.0000000000,,,
0.2441406250,3,49.0000000000,,,
0.2460937500,3,27.0000000000,,,
0.2480468750,3,33.0000000000,,,
0.2500000000,4,51.0000000000,,,
0.2519531250,4,45.0000000000,,,
0.2539062500,4,37.0000000000,,,
0.2558593750,4,59.0000000000,,,
0.2578125000,4,99.0000000000,,,
0.2597656250,4,105.0000000000,,,
0.2617187500,4,89.0000000000,,,
0.2636718750,4,69.0000000000,,,
0.2656250000,4,48.0000000000,,,
0.2675781250,4,23.0000000000,,,
0.2695312500,4,-11.0000000000,,,
0.2714843750,4,-30.0000000000,,,
0.2734375000,4,-53.0000000000,,,
0.2753906250,4,-86.0000000000,,,
0.2773437500,4,-86.0000000000,,,
0.2792968750,4,-67.0000000000,,,
0.2812500000,4,-49.0000000000,,,
0.2832031250,4,-39.0000000000,,,
0.2851562500,4,-40.0000000000,,,
0.2871093750,4,-68.0000000000,,,
0.2890625000,4,-108.0000000000,,,
0.2910156250,4,-120.0000000000,,,
0.2929687500,4,-86.0000000000,,,
0.2949218750,4,-29.0000000000,,,
0.2968750000,4,-24.0000000000,,,
0.2988281250,4,-33.0000000000,,,
0.3007812500,4,-20.0000000000,,,
0.3027343750,4,22.0000000000,,,
0.3046875000,4,55.0000000000,,,
0.3066406250,4,58.0000000000,,,
0.3085937500,4,48.0000000000,,,
0.3105468750,4,25.0000000000,,,
0.3125000000,5,20.0000000000,,,
0.3144531250,5,36.0000000000,,,
0.3164062500,5,48.0000000000,,,
0.3183593750,5,49.0000000000,,,
0.3203125000,5,40.0000000000,,,
0.3222656250,5,37.0000000000,,,
0.3242187500,5,58.0000000000,,,
0.3261718750,5,86.0000000000,,,
0.3281250000,5,84.0000000000,,,
0.3300781250,5,58.0000000000,,,
0.3320312500,5,42.0000000000,,,
0.3339843750,5,50.0000000000,,,
0.3359375000,5,58.0000000000,,,
0.3378906250,5,66.0000000000,,,
0.3398437500,5,69.0000000000,,,
0.3417968750,5,67.0000000000,,,
0.3437500000,5,50.0000000000,,,
0.3457031250,5,29.0000000000,,,
0.3476562500,5,22.0000000000,,,
0.3496093750,5,28.0000000000,,,
0.3515625000,5,28.0000000000,,,
0.3535156250,5,38.0000000000,,,
0.3554687500,5,42.0000000000,,,
0.3574218750,5,22.0000000000,,,
0.3593750000,5,-11.0000000000,,,
0.3613281250,5,-36.0000000000,,,
0.3632812500,5,-25.0000000000,,,
0.3652343750,5,10.0000000000,,,
0.3671875000,5,38.0000000000,,,
0.3691406250,5,42.0000000000,,,
0.3710937500,5,21.0000000000,,,
0.3730468750,5,-3.0000000000,,,
0.3750000000,6,0.0000000000,,,
0.3769531250,6,34.0000000000,,,
0.3789062500,6,54.0000000000,,,
0.3808593750,6,68.0000000000,,,
0.3828125000,6,102.0000000000,,,
0.3847656250,6,146.0000000000,,,
0.3867187500,6,153.0000000000,,,
0.3886718750,6,148.0000000000,,,
0.3906250000,6,176.0000000000,,,
0.3925781250,6,213.0000000000,,,
0.3945312500,6,198.0000000000,,,
0.3964843750,6,140.0000000000,,,
0.3984375000,6,81.0000000000,,,
0.4003906250,6,55.0000000000,,,
0.4023437500,6,36.0000000000,,,
0.4042968750,6,22.0000000000,,,
0.4062500000,6,35.0000000000,,,
0.4082031250,6,52.0000000000,,,
0.4101562500,6,36.0000000000,,,
0.4121093750,6,8.0000000000,,,
0.4140625000,6,-13.0000000000,,,
0.4160156250,6,-13.0000000000,,,
0.4179687500,6,12.0000000000,,,
0.4199218750,6,40.0000000000,,,
0.4218750000,6,41.0000000000,,,
0.4238281250,6,26.0000000000,,,
0.4257812500,6,17.0000000000,,,
0.4277343750,6,25.0000000000,,,
0.4296875000,6,21.0000000000,,,
0.4316406250,6,-1.0000000000,,,
0.4335937500,6,-6.0000000000,,,
0.4355468750,6,2.0000000000,,,
0.4375000000,7,21.0000000000,,,
0.4394531250,7,48.0000000000,,,
0.4414062500,7,71.0000000000,,,
0.4433593750,7,90.0000000000,,,
0.4453125000,7,93.0000000000,,,
0.4472656250,7,71.0000000000,,,
0.4492187500,7,58.0000000000,,,
0.4511718750,7,68.0000000000,,,
0.4531250000,7,68.0000000000,,,
0.4550781250,7,37.0000000000,,,
0.4570312500,7,-4.0000000000,,,
0.4589843750,7,-13.0000000000,,,
0.4609375000,7,7.0000000000,,,
0.4628906250,7,35.0000000000,,,
0.4648437500,7,55.0000000000,,,
0.4667968750,7,86.0000000000,,,
0.4687500000,7,99.0000000000,,,
0.4707031250,7,68.0000000000,,,
0.4726562500,7,40.0000000000,,,
0.4746093750,7,50.0000000000,,,
0.4765625000,7,64.0000000000,,,
0.4785156250,7,66.0000000000,,,
0.4804687500,7,61.0000000000,,,
0.4824218750,7,54.0000000000,,,
0.4843750000,7,38.0000000000,,,
0.4863281250,7,33.0000000000,,,
0.4882812500,7,52.0000000000,,,
0.4902343750,7,77.0000000000,,,
0.4921875000,7,77.0000000000,,,
0.4941406250,7,60.0000000000,,,
0.4960937500,7,54.0000000000,,,
0.4980468750,7,58.0000000000,,,
0.5000000000,8,58.0000000000,,,
0.5019531250,8,55.0000000000,,,
0.5039062500,8,77.0000000000,,,
0.5058593750,8,113.0000000000,,,
0.5078125000,8,125.0000000000,,,
0.5097656250,8,113.0000000000,,,
0.5117187500,8,101.0000000000,,,
0.5136718750,8,99.0000000000,,,
0.5156250000,8,90.0000000000,,,
0.5175781250,8,68.0000000000,,,
0.5195312500,8,34.0000000000,,,
0.5214843750,8,18.0000000000,,,
0.5234375000,8,34.0000000000,,,
0.5253906250,8,54.0000000000,,,
0.5273437500,8,55.0000000000,,,
0.5292968750,8,72.0000000000,,,
0.5312500000,8,92.0000000000,,,
0.5332031250,8,107.0000000000,,,
0.5351562500,8,97.0000000000,,,
0.5371093750,8,67.0000000000,,,
0.5390625000,8,43.0000000000,,,
0.5410156250,8,44.0000000000,,,
0.5429687500,8,53.0000000000,,,
0.5449218750,8,38.0000000000,,,
0.5468750000,8,16.0000000000,,,
0.5488281250,8,-7.0000000000,,,
0.5507812500,8,-25.0000000000,,,
0.5527343750,8,-10.0000000000,,,
0.5546875000,8,34.0000000000,,,
0.5566406250,8,80.0000000000,,,
0.5585937500,8,92.0000000000,,,
0.5605468750,8,76.0000000000,,,
0.5625000000,9,52.0000000000,,,
0.5644531250,9,55.0000000000,,,
0.5664062500,9,83.0000000000,,,
0.5683593750,9,104.0000000000,,,
0.5703125000,9,107.0000000000,,,
0.5722656250,9,99.0000000000,,,
0.5742187500,9,88.0000000000,,,
0.5761718750,9,74.0000000000,,,
0.5781250000,9,42.0000000000,,,
0.5800781250,9,10.0000000000,,,
0.5820312500,9,11.0000000000,,,
0.5839843750,9,24.0000000000,,,
0.5859375000,9,23.0000000000,,,
0.5878906250,9,25.0000000000,,,
0.5898437500,9,23.0000000000,,,
0.5917968750,9,22.0000000000,,,
0.5937500000,9,36.0000000000,,,
0.5957031250,9,64.0000000000,,,
0.5976562500,9,65.0000000000,,,
0.5996093750,9,44.0000000000,,,
0.6015625000,9,53.0000000000,,,
0.6035156250,9,85.0000000000,,,
0.6054687500,9,99.0000000000,,,
0.6074218750,9,82.0000000000,,,
0.6093750000,9,68.0000000000,,,
0.6113281250,9,64.0000000000,,,
0.6132812500,9,58.0000000000,,,
0.6152343750,9,48.0000000000,,,
0.6171875000,9,11.0000000000,,,
0.6191406250,9,-28.0000000000,,,
0.6210937500,9,-25.0000000000,,,
0.6230468750,9,6.0000000000,,,
0.6250000000,10,35.0000000000,,,
0.6269531250,10,52.0000000000,,,
0.6289062500,10,28.0000000000,,,
0.6308593750,10,5.0000000000,,,
0.6328125000,10,13.0000000000,,,
0.6347656250,10,28.0000000000,,,
0.6367187500,10,37.0000000000,,,
0.6386718750,10,25.0000000000,,,
0.6406250000,10,4.0000000000,,,
0.6425781250,10,-7.0000000000,,,
0.6445312500,10,1.0000000000,,,
0.6464843750,10,23.0000000000,,,
0.6484375000,10,56.0000000000,,,
0.6503906250,10,86.0000000000,,,
0.6523437500,10,89.0000000000,,,
0.6542968750,10,72.0000000000,,,
0.6562500000,10,55.0000000000,,,
0.6582031250,10,44.0000000000,,,
0.6601562500,10,54.0000000000,,,
0.6621093750,10,40.0000000000,,,
0.6640625000,10,9.0000000000,,,
0.6660156250,10,7.0000000000,,,
0.6679687500,10,41.0000000000,,,
0.6699218750,10,66.0000000000,,,
0.6718750000,10,75.0000000000,,,
0.6738281250,10,81.0000000000,,,
0.6757812500,10,67.0000000000,,,
0.6777343750,10,42.0000000000,,,
0.6796875000,10,40.0000000000,,,
0.6816406250,10,40.0000000000,,,
0.6835937500,10,8.0000000000,,,
0.6855468750,10,-52.0000000000,,,
0.6875000000,11,-118.0000000000,,,
0.6894531250,11,-141.0000000000,,,
0.6914062500,11,-121.0000000000,,,
0.6933593750,11,-97.0000000000,,,
0.6953125000,11,-93.0000000000,,,
0.6972656250,11,-99.0000000000,,,
0.6992187500,11,-88.0000000000,,,
0.7011718750,11,-57.0000000000,,,
0.7031250000,11,-14.0000000000,,,
0.7050781250,11,20.0000000000,,,
0.7070312500,11,23.0000000000,,,
0.7089843750,11,23.0000000000,,,
0.7109375000,11,34.0000000000,,,
0.7128906250,11,29.0000000000,,,
0.7148437500,11,16.0000000000,,,
0.7167968750,11,-5.0000000000,,,
0.7187500000,11,-18.0000000000,,,
0.7207031250,11,-20.0000000000,,,
0.7226562500,11,-12.0000000000,,,
0.7246093750,11,10.0000000000,,,
0.7265625000,11,38.0000000000,,,
0.7285156250,11,59.0000000000,,,
0.7304687500,11,80.0000000000,,,
0.7324218750,11,61.0000000000,,,
0.7343750000,11,54.0000000000,,,
0.7363281250,11,72.0000000000,,,
0.7382812500,11,49.0000000000,,,
0.7402343750,11,27.0000000000,,,
0.7421875000,11,37.0000000000,,,
0.7441406250,11,56.0000000000,,,
0.7460937500,11,67.0000000000,,,
0.7480468750,11,73.0000000000,,,
0.7500000000,12,80.0000000000,,,
0.7519531250,12,75.0000000000,,,
0.7539062500,12,57.0000000000,,,
0.7558593750,12,33.0000000000,,,
0.7578125000,12,16.0000000000,,,
0.7597656250,12,3.0000000000,,,
0.7617187500,12,-6.0000000000,,,
0.7636718750,12,-3.0000000000,,,
0.7656250000,12,25.0000000000,,,
0.7675781250,12,28.0000000000,,,
0.7695312500,12,22.0000000000,,,
0.7714843750,12,73.0000000000,,,
0.7734375000,12,139.0000000000,,,
0.7753906250,12,164.0000000000,,,
0.7773437500,12,145.0000000000,,,
0.7792968750,12,101.0000000000,,,
0.7812500000,12,98.0000000000,,,
0.7832031250,12,148.0000000000,,,
0.7851562500,12,182.0000000000,,,
0.7871093750,12,170.0000000000,,,
0.7890625000,12,131.0000000000,,,
0.7910156250,12,87.0000000000,,,
0.7929687500,12,56.0000000000,,,
0.7949218750,12,54.0000000000,,,
0.7968750000,12,65.0000000000,,,
0.7988281250,12,52.0000000000,,,
0.8007812500,12,45.0000000000,,,
0.8027343750,12,55.0000000000,,,
0.8046875000,12,42.0000000000,,,
0.8066406250,12,53.0000000000,,,
0.8085937500,12,80.0000000000,,,
0.8105468750,12,113.0000000000,,,
0.8125000000,13,122.0000000000,,,
0.8144531250,13,98.0000000000,,,
0.8164062500,13,73.0000000000,,,
0.8183593750,13,57.0000000000,,,
0.8203125000,13,40.0000000000,,,
0.8222656250,13,23.0000000000,,,
0.8242187500,13,20.0000000000,,,
0.8261718750,13,32.0000000000,,,
0.8281250000,13,37.0000000000,,,
0.8300781250,13,42.0000000000,,,
0.8320312500,13,52.0000000000,,,
0.8339843750,13,44.0000000000,,,
0.8359375000,13,38.0000000000,,,
0.8378906250,13,59.0000000000,,,
0.8398437500,13,68.0000000000,,,
0.8417968750,13,55.0000000000,,,
0.8437500000,13,58.0000000000,,,
0.8457031250,13,51.0000000000,,,
0.8476562500,13,18.0000000000,,,
0.8496093750,13,23.0000000000,,,
0.8515625000,13,66.0000000000,,,
0.8535156250,13,84.0000000000,,,
0.8554687500,13,86.0000000000,,,
0.8574218750,13,90.0000000000,,,
0.8593750000,13,99.0000000000,,,
0.8613281250,13,137.0000000000,,,
0.8632812500,13,197.0000000000,,,
0.8652343750,13,217.0000000000,,,
0.8671875000,13,220.0000000000,,,
0.8691406250,13,216.0000000000,,,
0.8710937500,13,193.0000000000,,,
0.8730468750,13,233.0000000000,,,
0.8750000000,14,354.0000000000,,,
0.8769531250,14,410.0000000000,,,
0.8789062500,14,408.0000000000,,,
0.8808593750,14,393.0000000000,,,
0.8828125000,14,397.0000000000,,,
0.8847656250,14,436.0000000000,,,
0.8867187500,14,496.0000000000,,,
0.8886718750,14,548.0000000000,,,
0.8906250000,14,566.0000000000,,,
0.8925781250,14,522.0000000000,,,
0.8945312500,14,442.0000000000,,,
0.8964843750,14,421.0000000000,,,
0.8984375000,14,486.0000000000,,,
0.9003906250,14,581.0000000000,,,
0.9023437500,14,614.0000000000,,,
0.9042968750,14,529.0000000000,,,
0.9062500000,14,410.0000000000,,,
0.9082031250,14,363.0000000000,,,
0.9101562500,14,373.0000000000,,,
0.9121093750,14,361.0000000000,,,
0.9140625000,14,328.0000000000,,,
0.9160156250,14,298.0000000000,,,
0.9179687500,14,274.0000000000,,,
0.9199218750,14,244.0000000000,,,
0.9218750000,14,181.0000000000,,,
0.9238281250,14,97.0000000000,,,
0.9257812500,14,32.0000000000,,,
0.9277343750,14,18.0000000000,,,
0.9296875000,14,45.0000000000,,,
0.9316406250,14,55.0000000000,,,
0.9335937500,14,-3.0000000000,,,
0.9355468750,14,-101.0000000000,,,
0.9375000000,15,-153.0000000000,,,
0.9394531250,15,-125.0000000000,,,
0.9414062500,15,-90.0000000000,,,
0.9433593750,15,-82.0000000000,,,
0.9453125000,15,-103.0000000000,,,
0.9472656250,15,-146.0000000000,,,
0.9492187500,15,-173.0000000000,,,
0.9511718750,15,-166.0000000000,,,
0.9531250000,15,-149.0000000000,,,
0.9550781250,15,-147.0000000000,,,
0.9570312500,15,-153.0000000000,,,
0.9589843750,15,-167.0000000000,,,
0.9609375000,15,-184.0000000000,,,
0.9628906250,15,-193.0000000000,,,
0.9648437500,15,-220.0000000000,,,
0.9667968750,15,-259.0000000000,,,
0.9687500000,15,-281.0000000000,,,
0.9707031250,15,-264.0000000000,,,
0.9726562500,15,-217.0000000000,,,
0.9746093750,15,-184.0000000000,,,
0.9765625000,15,-196.0000000000,,,
0.9785156250,15,-249.0000000000,,,
0.9804687500,15,-292.0000000000,,,
0.9824218750,15,-281.0000000000,,,
0.9843750000,15,-263.0000000000,,,
0.9863281250,15,-273.0000000000,,,
0.9882812500,15,-285.0000000000,,,
0.9902343750,15,-283.0000000000,,,
0.9921875000,15,-258.0000000000,,,
0.9941406250,15,-220.0000000000,,,
0.9960937500,15,-209.0000000000,,,
0.9980468750,15,-206.0000000000,,,
1.0000000000,16,-212.0000000000,,,
1.0019531250,16,-203.0000000000,,,
1.0039062500,16,-189.0000000000,,,
1.0058593750,16,-209.0000000000,,,
1.0078125000,16,-236.0000000000,,,
1.0097656250,16,-250.0000000000,,,
1.0117187500,16,-243.0000000000,,,
1.0136718750,16,-212.0000000000,,,
1.0156250000,16,-201.0000000000,,,
1.0175781250,16,-213.0000000000,,,
1.0195312500,16,-195.0000000000,,,
1.0214843750,16,-152.0000000000,,,
1.0234375000,16,-131.0000000000,,,
1.0253906250,16,-146.0000000000,,,
1.0273437500,16,-171.0000000000,,,
1.0292968750,16,-183.0000000000,,,
1.0312500000,16,-163.0000000000,,,
1.0332031250,16,-130.0000000000,,,
1.0351562500,16,-122.0000000000,,,
1.0371093750,16,-129.0000000000,,,
1.0390625000,16,-125.0000000000,,,
1.0410156250,16,-121.0000000000,,,
1.0429687500,16,-105.0000000000,,,
1.0449218750,16,-77.0000000000,,,
1.0468750000,16,-59.0000000000,,,
1.0488281250,16,-66.0000000000,,,
1.0507812500,16,-58.0000000000,,,
1.0527343750,16,-19.0000000000,,,
1.0546875000,16,16.0000000000,,,
1.0566406250,16,34.0000000000,,,
1.0585937500,16,40.0000000000,,,
1.0605468750,16,43.0000000000,,,
1.0625000000,17,34.0000000000,,,
1.0644531250,17,13.0000000000,,,
1.0664062500,17,-22.0000000000,,,
1.0683593750,17,-51.0000000000,,,
1.0703125000,17,-69.0000000000,,,
1.0722656250,17,-86.0000000000,,,
1.0742187500,17,-102.0000000000,,,
1.0761718750,17,-118.0000000000,,,
1.0781250000,17,-88.0000000000,,,
1.0800781250,17,-39.0000000000,,,
1.0820312500,17,-11.0000000000,,,
1.0839843750,17,1.0000000000,,,
1.0859375000,17,18.0000000000,,,
1.0878906250,17,21.0000000000,,,
1.0898437500,17,3.0000000000,,,
1.0917968750,17,-10.0000000000,,,
1.0937500000,17,-3.0000000000,,,
1.0957031250,17,16.0000000000,,,
1.0976562500,17,24.0000000000,,,
1.0996093750,17,25.0000000000,,,
1.1015625000,17,43.0000000000,,,
1.1035156250,17,69.0000000000,,,
1.1054687500,17,80.0000000000,,,
1.1074218750,17,66.0000000000,,,
1.1093750000,17,37.0000000000,,,
1.1113281250,17,17.0000000000,,,
1.1132812500,17,6.0000000000,,,
1.1152343750,17,-7.0000000000,,,
1.1171875000,17,-25.0000000000,,,
1.1191406250,17,-22.0000000000,,,
1.1210937500,17,2.0000000000,,,
1.1230468750,17,32.0000000000,,,
1.1250000000,18,41.0000000000,,,
1.1269531250,18,18.0000000000,,,
1.1289062500,18,0.0000000000,,,
1.1308593750,18,17.0000000000,,,
1.1328125000,18,26.0000000000,,,
1.1347656250,18,19.0000000000,,,
1.1367187500,18,6.0000000000,,,
1.1386718750,18,8.0000000000,,,
1.1406250000,18,5.0000000000,,,
1.1425781250,18,-8.0000000000,,,
1.1445312500,18,-22.0000000000,,,
1.1464843750,18,-24.0000000000,,,
1.1484375000,18,-18.0000000000,,,
1.1503906250,18,4.0000000000,,,
1.1523437500,18,16.0000000000,,,
1.1542968750,18,9.0000000000,,,
1.1562500000,18,16.0000000000,,,
1.1582031250,18,34.0000000000,,,
1.1601562500,18,39.0000000000,,,
1.1621093750,18,23.0000000000,,,
1.1640625000,18,9.0000000000,,,
1.1660156250,18,8.0000000000,,,
1.1679687500,18,23.0000000000,,,
1.1699218750,18,39.0000000000,,,
1.1718750000,18,49.0000000000,,,
1.1738281250,18,54.0000000000,,,
1.1757812500,18,58.0000000000,,,
1.1777343750,18,56.0000000000,,,
1.1796875000,18,51.0000000000,,,
1.1816406250,18,50.0000000000,,,
1.1835937500,18,41.0000000000,,,
1.1855468750,18,22.0000000000,,,
1.1875000000,19,40.0000000000,,,
1.1894531250,19,66.0000000000,,,
1.1914062500,19,44.0000000000,,,
1.1933593750,19,32.0000000000,,,
1.1953125000,19,44.0000000000,,,
1.1972656250,19,64.0000000000,,,
1.1992187500,19,58.0000000000,,,
1.2011718750,19,38.0000000000,,,
1.2031250000,19,11.0000000000,,,
1.2050781250,19,1.0000000000,,,
1.2070312500,19,8.0000000000,,,
1.2089843750,19,38.0000000000,,,
1.2109375000,19,103.0000000000,,,
1.2128906250,19,148.0000000000,,,
1.2148437500,19,140.0000000000,,,
1.2167968750,19,123.0000000000,,,
1.2187500000,19,141.0000000000,,,
1.2207031250,19,185.0000000000,,,
1.2226562500,19,155.0000000000,,,
1.2246093750,19,91.0000000000,,,
1.2265625000,19,71.0000000000,,,
1.2285156250,19,57.0000000000,,,
1.2304687500,19,36.0000000000,,,
1.2324218750,19,28.0000000000,,,
1.2343750000,19,40.0000000000,,,
1.2363281250,19,61.0000000000,,,
1.2382812500,19,74.0000000000,,,
1.2402343750,19,57.0000000000,,,
1.2421875000,19,58.0000000000,,,
1.2441406250,19,86.0000000000,,,
1.2460937500,19,102.0000000000,,,
1.2480468750,19,102.0000000000,,,
1.2500000000,20,87.0000000000,,,
1.2519531250,20,87.0000000000,,,
1.2539062500,20,81.0000000000,,,
1.2558593750,20,76.0000000000,,,
1.2578125000,20,64.0000000000,,,
1.2597656250,20,50.0000000000,,,
1.2617187500,20,60.0000000000,,,
1.2636718750,20,69.0000000000,,,
1.2656250000,20,84.0000000000,,,
1.2675781250,20,102.0000000000,,,
1.2695312500,20,112.0000000000,,,
1.2714843750,20,98.0000000000,,,
1.2734375000,20,60.0000000000,,,
1.2753906250,20,38.0000000000,,,
1.2773437500,20,37.0000000000,,,
1.2792968750,20,39.0000000000,,,
1.2812500000,20,8.0000000000,,,
1.2832031250,20,-1.0000000000,,,
1.2851562500,20,67.0000000000,,,
1.2871093750,20,145.0000000000,,,
1.2890625000,20,148.0000000000,,,
1.2910156250,20,80.0000000000,,,
1.2929687500,20,60.0000000000,,,
1.2949218750,20,107.0000000000,,,
1.2968750000,20,134.0000000000,,,
1.2988281250,20,109.0000000000,,,
1.3007812500,20,97.0000000000,,,
1.3027343750,20,87.0000000000,,,
1.3046875000,20,65.0000000000,,,
1.3066406250,20,61.0000000000,,,
1.3085937500,20,119.0000000000,,,
1.3105468750,20,134.0000000000,,,
1.3125000000,21,103.0000000000,,,
1.3144531250,21,87.0000000000,,,
1.3164062500,21,70.0000000000,,,
1.3183593750,21,60.0000000000,,,
1.3203125000,21,28.0000000000,,,
1.3222656250,21,-40.0000000000,,,
1.3242187500,21,-83.0000000000,,,
1.3261718750,21,0.0000000000,,,
1.3281250000,21,171.0000000000,,,
1.3300781250,21,251.0000000000,,,
1.3320312500,21,224.0000000000,,,
1.3339843750,21,132.0000000000,,,
1.3359375000,21,45.0000000000,,,
1.3378906250,21,38.0000000000,,,
1.3398437500,21,72.0000000000,,,
1.3417968750,21,74.0000000000,,,
1.3437500000,21,37.0000000000,,,
1.3457031250,21,-33.0000000000,,,
1.3476562500,21,-76.0000000000,,,
1.3496093750,21,-66.0000000000,,,
1.3515625000,21,-30.0000000000,,,
1.3535156250,21,16.0000000000,,,
1.3554687500,21,72.0000000000,,,
1.3574218750,21,105.0000000000,,,
1.3593750000,21,90.0000000000,,,
1.3613281250,21,73.0000000000,,,
1.3632812500,21,52.0000000000,,,
1.3652343750,21,1.0000000000,,,
1.3671875000,21,-29.0000000000,,,
1.3691406250,21,-9.0000000000,,,
1.3710937500,21,7.0000000000,,,
1.3730468750,21,17.0000000000,,,
1.3750000000,22,32.0000000000,,,
1.3769531250,22,37.0000000000,,,
1.3789062500,22,28.0000000000,,,
1.3808593750,22,48.0000000000,,,
1.3828125000,22,82.0000000000,,,
1.3847656250,22,101.0000000000,,,
1.3867187500,22,88.0000000000,,,
1.3886718750,22,80.0000000000,,,
1.3906250000,22,69.0000000000,,,
1.3925781250,22,42.0000000000,,,
1.3945312500,22,-5.0000000000,,,
1.3964843750,22,-29.0000000000,,,
1.3984375000,22,-41.0000000000,,,
1.4003906250,22,-41.0000000000,,,
1.4023437500,22,-61.0000000000,,,
1.4042968750,22,-130.0000000000,,,
1.4062500000,22,-169.0000000000,,,
1.4082031250,22,-117.0000000000,,,
1.4101562500,22,-100.0000000000,,,
1.4121093750,22,-156.0000000000,,,
1.4140625000,22,-139.0000000000,,,
1.4160156250,22,-17.0000000000,,,
1.4179687500,22,9.0000000000,,,
1.4199218750,22,-122.0000000000,,,
1.4218750000,22,-147.0000000000,,,
1.4238281250,22,-77.0000000000,,,
1.4257812500,22,-85.0000000000,,,
1.4277343750,22,-117.0000000000,,,
1.4296875000,22,-84.0000000000,,,
1.4316406250,22,71.0000000000,,,
1.4335937500,22,243.0000000000,,,
1.4355468750,22,282.0000000000,,,
1.4375000000,23,209.0000000000,,,
1.4394531250,23,153.0000000000,,,
1.4414062500,23,162.0000000000,,,
1.4433593750,23,176.0000000000,,,
1.4453125000,23,99.0000000000,,,
1.4472656250,23,-8.0000000000,,,
1.4492187500,23,-41.0000000000,,,
1.4511718750,23,-23.0000000000,,,
1.4531250000,23,51.0000000000,,,
1.4550781250,23,38.0000000000,,,
1.4570312500,23,-21.0000000000,,,
1.4589843750,23,-58.0000000000,,,
1.4609375000,23,-68.0000000000,,,
1.4628906250,23,-44.0000000000,,,
1.4648437500,23,-20.0000000000,,,
1.4667968750,23,-24.0000000000,,,
1.4687500000,23,-46.0000000000,,,
1.4707031250,23,-34.0000000000,,,
1.4726562500,23,1.0000000000,,,
1.4746093750,23,35.0000000000,,,
1.4765625000,23,43.0000000000,,,
1.4785156250,23,22.0000000000,,,
1.4804687500,23,-7.0000000000,,,
1.4824218750,23,-29.0000000000,,,
1.4843750000,23,-41.0000000000,,,
1.4863281250,23,-54.0000000000,,,
1.4882812500,23,-42.0000000000,,,
1.4902343750,23,-22.0000000000,,,
1.4921875000,23,-4.0000000000,,,
1.4941406250,23,5.0000000000,,,
1.4960937500,23,-30.0000000000,,,
1.4980468750,23,-103.0000000000,,,
1.5000000000,24,-104.0000000000,,,
1.5019531250,24,-76.0000000000,,,
1.5039062500,24,-83.0000000000,,,
1.5058593750,24,-105.0000000000,,,
1.5078125000,24,-138.0000000000,,,
1.5097656250,24,-146.0000000000,,,
1.5117187500,24,-92.0000000000,,,
1.5136718750,24,-61.0000000000,,,
1.5156250000,24,-82.0000000000,,,
1.5175781250,24,-100.0000000000,,,
1.5195312500,24,-81.0000000000,,,
1.5214843750,24,-65.0000000000,,,
1.5234375000,24,-67.0000000000,,,
1.5253906250,24,-68.0000000000,,,
1.5273437500,24,-98.0000000000,,,
1.5292968750,24,-137.0000000000,,,
1.5312500000,24,-164.0000000000,,,
1.5332031250,24,-200.0000000000,,,
1.5351562500,24,-234.0000000000,,,
1.5371093750,24,-259.0000000000,,,
1.5390625000,24,-254.0000000000,,,
1.5410156250,24,-221.0000000000,,,
1.5429687500,24,-197.0000000000,,,
1.5449218750,24,-193.0000000000,,,
1.5468750000,24,-193.0000000000,,,
1.5488281250,24,-168.0000000000,,,
1.5507812500,24,-118.0000000000,,,
1.5527343750,24,-71.0000000000,,,
1.5546875000,24,-68.0000000000,,,
1.5566406250,24,-60.0000000000,,,
1.5585937500,24,-62.0000000000,,,
1.5605468750,24,-74.0000000000,,,
1.5625000000,25,-69.0000000000,,,
1.5644531250,25,-70.0000000000,,,
1.5664062500,25,-84.0000000000,,,
1.5683593750,25,-54.0000000000,,,
1.5703125000,25,-21.0000000000,,,
1.5722656250,25,-40.0000000000,,,
1.5742187500,25,-61.0000000000,,,
1.5761718750,25,-45.0000000000,,,
1.5781250000,25,-12.0000000000,,,
1.5800781250,25,13.0000000000,,,
1.5820312500,25,23.0000000000,,,
1.5839843750,25,42.0000000000,,,
1.5859375000,25,75.0000000000,,,
1.5878906250,25,65.0000000000,,,
1.5898437500,25,49.0000000000,,,
1.5917968750,25,72.0000000000,,,
1.5937500000,25,123.0000000000,,,
1.5957031250,25,151.0000000000,,,
1.5976562500,25,166.0000000000,,,
1.5996093750,25,232.0000000000,,,
1.6015625000,25,244.0000000000,,,
1.6035156250,25,229.0000000000,,,
1.6054687500,25,269.0000000000,,,
1.6074218750,25,313.0000000000,,,
1.6093750000,25,347.0000000000,,,
1.6113281250,25,341.0000000000,,,
1.6132812500,25,292.0000000000,,,
1.6152343750,25,263.0000000000,,,
1.6171875000,25,277.0000000000,,,
1.6191406250,25,316.0000000000,,,
1.6210937500,25,354.0000000000,,,
1.6230468750,25,348.0000000000,,,
1.6250000000,26,313.0000000000,,,
1.6269531250,26,291.0000000000,,,
1.6289062500,26,336.0000000000,,,
1.6308593750,26,401.0000000000,,,
1.6328125000,26,436.0000000000,,,
1.6347656250,26,437.0000000000,,,
1.6367187500,26,423.0000000000,,,
1.6386718750,26,429.0000000000,,,
1.6406250000,26,448.0000000000,,,
1.6425781250,26,448.0000000000,,,
1.6445312500,26,429.0000000000,,,
1.6464843750,26,387.0000000000,,,
1.6484375000,26,346.0000000000,,,
1.6503906250,26,328.0000000000,,,
1.6523437500,26,315.0000000000,,,
1.6542968750,26,385.0000000000,,,
1.6562500000,26,454.0000000000,,,
1.6582031250,26,435.0000000000,,,
1.6601562500,26,410.0000000000,,,
1.6621093750,26,455.0000000000,,,
1.6640625000,26,503.0000000000,,,
1.6660156250,26,484.0000000000,,,
1.6679687500,26,402.0000000000,,,
1.6699218750,26,336.0000000000,,,
1.6718750000,26,306.0000000000,,,
1.6738281250,26,274.0000000000,,,
1.6757812500,26,275.0000000000,,,
1.6777343750,26,323.0000000000,,,
1.6796875000,26,325.0000000000,,,
1.6816406250,26,297.0000000000,,,
1.6835937500,26,276.0000000000,,,
1.6855468750,26,252.0000000000,,,
1.6875000000,27,281.0000000000,,,
1.6894531250,27,352.0000000000,,,
1.6914062500,27,378.0000000000,,,
1.6933593750,27,355.0000000000,,,
1.6953125000,27,308.0000000000,,,
1.6972656250,27,291.0000000000,,,
1.6992187500,27,290.0000000000,,,
1.7011718750,27,305.0000000000,,,
1.7031250000,27,301.0000000000,,,
1.7050781250,27,282.0000000000,,,
1.7070312500,27,259.0000000000,,,
1.7089843750,27,244.0000000000,,,
1.7109375000,27,224.0000000000,,,
1.7128906250,27,185.0000000000,,,
1.7148437500,27,155.0000000000,,,
1.7167968750,27,114.0000000000,,,
1.7187500000,27,81.0000000000,,,
1.7207031250,27,93.0000000000,,,
1.7226562500,27,136.0000000000,,,
1.7246093750,27,202.0000000000,,,
1.7265625000,27,250.0000000000,,,
1.7285156250,27,233.0000000000,,,
1.7304687500,27,202.0000000000,,,
1.7324218750,27,214.0000000000,,,
1.7343750000,27,233.0000000000,,,
1.7363281250,27,231.0000000000,,,
1.7382812500,27,192.0000000000,,,
1.7402343750,27,136.0000000000,,,
1.7421875000,27,112.0000000000,,,
1.7441406250,27,115.0000000000,,,
1.7460937500,27,118.0000000000,,,
1.7480468750,27,135.0000000000,,,
1.7500000000,28,180.0000000000,,,
1.7519531250,28,217.0000000000,,,
1.7539062500,28,178.0000000000,,,
1.7558593750,28,103.0000000000,,,
1.7578125000,28,72.0000000000,,,
1.7597656250,28,69.0000000000,,,
1.7617187500,28,74.0000000000,,,
1.7636718750,28,82.0000000000,,,
1.7656250000,28,100.0000000000,,,
1.7675781250,28,119.0000000000,,,
1.7695312500,28,109.0000000000,,,
1.7714843750,28,66.0000000000,,,
1.7734375000,28,16.0000000000,,,
1.7753906250,28,0.0000000000,,,
1.7773437500,28,1.0000000000,,,
1.7792968750,28,2.0000000000,,,
1.7812500000,28,10.0000000000,,,
1.7832031250,28,-9.0000000000,,,
1.7851562500,28,-60.0000000000,,,
1.7871093750,28,-85.0000000000,,,
1.7890625000,28,-70.0000000000,,,
1.7910156250,28,-36.0000000000,,,
1.7929687500,28,-20.0000000000,,,
1.7949218750,28,-22.0000000000,,,
1.7968750000,28,-28.0000000000,,,
1.7988281250,28,-35.0000000000,,,
1.8007812500,28,-61.0000000000,,,
1.8027343750,28,-91.0000000000,,,
1.8046875000,28,-74.0000000000,,,
1.8066406250,28,-29.0000000000,,,
1.8085937500,28,-37.0000000000,,,
1.8105468750,28,-87.0000000000,,,
1.8125000000,29,-134.0000000000,,,
1.8144531250,29,-130.0000000000,,,
1.8164062500,29,-101.0000000000,,,
1.8183593750,29,-73.0000000000,,,
1.8203125000,29,-54.0000000000,,,
1.8222656250,29,-68.0000000000,,,
1.8242187500,29,-98.0000000000,,,
1.8261718750,29,-61.0000000000,,,
1.8281250000,29,-4.0000000000,,,
1.8300781250,29,-19.0000000000,,,
1.8320312500,29,-19.0000000000,,,
1.8339843750,29,58.0000000000,,,
1.8359375000,29,107.0000000000,,,
1.8378906250,29,58.0000000000,,,
1.8398437500,29,10.0000000000,,,
1.8417968750,29,24.0000000000,,,
1.8437500000,29,64.0000000000,,,
1.8457031250,29,57.0000000000,,,
1.8476562500,29,17.0000000000,,,
1.8496093750,29,-6.0000000000,,,
1.8515625000,29,-2.0000000000,,,
1.8535156250,29,37.0000000000,,,
1.8554687500,29,66.0000000000,,,
1.8574218750,29,69.0000000000,,,
1.8593750000,29,49.0000000000,,,
1.8613281250,29,10.0000000000,,,
1.8632812500,29,-35.0000000000,,,
1.8652343750,29,-56.0000000000,,,
1.8671875000,29,-19.0000000000,,,
1.8691406250,29,10.0000000000,,,
1.8710937500,29,-12.0000000000,,,
1.8730468750,29,-27.0000000000,,,
1.8750000000,30,-17.0000000000,,,
1.8769531250,30,11.0000000000,,,
1.8789062500,30,49.0000000000,,,
1.8808593750,30,50.0000000000,,,
1.8828125000,30,37.0000000000,,,
1.8847656250,30,45.0000000000,,,
1.8867187500,30,53.0000000000,,,
1.8886718750,30,26.0000000000,,,
1.8906250000,30,-40.0000000000,,,
1.8925781250,30,-60.0000000000,,,
1.8945312500,30,-11.0000000000,,,
1.8964843750,30,25.0000000000,,,
1.8984375000,30,28.0000000000,,,
1.9003906250,30,25.0000000000,,,
1.9023437500,30,33.0000000000,,,
1.9042968750,30,9.0000000000,,,
1.9062500000,30,-45.0000000000,,,
1.9082031250,30,-60.0000000000,,,
1.9101562500,30,-6.0000000000,,,
1.9121093750,30,77.0000000000,,,
1.9140625000,30,131.0000000000,,,
1.9160156250,30,122.0000000000,,,
1.9179687500,30,66.0000000000,,,
1.9199218750,30,37.0000000000,,,
1.9218750000,30,104.0000000000,,,
1.9238281250,30,199.0000000000,,,
1.9257812500,30,229.0000000000,,,
1.9277343750,30,130.0000000000,,,
1.9296875000,30,23.0000000000,,,
1.9316406250,30,43.0000000000,,,
1.9335937500,30,144.0000000000,,,
1.9355468750,30,199.0000000000,,,
1.9375000000,31,179.0000000000,,,
1.9394531250,31,155.0000000000,,,
1.9414062500,31,178.0000000000,,,
1.9433593750,31,177.0000000000,,,
1.9453125000,31,124.0000000000,,,
1.9472656250,31,82.0000000000,,,
1.9492187500,31,26.0000000000,,,
1.9511718750,31,-9.0000000000,,,
1.9531250000,31,-7.0000000000,,,
1.9550781250,31,-5.0000000000,,,
1.9570312500,31,-22.0000000000,,,
1.9589843750,31,-42.0000000000,,,
1.9609375000,31,-75.0000000000,,,
1.9628906250,31,-102.0000000000,,,
1.9648437500,31,-104.0000000000,,,
1.9667968750,31,-102.0000000000,,,
1.9687500000,31,-109.0000000000,,,
1.9707031250,31,-142.0000000000,,,
1.9726562500,31,-181.0000000000,,,
1.9746093750,31,-232.0000000000,,,
1.9765625000,31,-259.0000000000,,,
1.9785156250,31,-233.0000000000,,,
1.9804687500,31,-201.0000000000,,,
1.9824218750,31,-209.0000000000,,,
1.9843750000,31,-238.0000000000,,,
1.9863281250,31,-268.0000000000,,,
1.9882812500,31,-289.0000000000,,,
1.9902343750,31,-311.0000000000,,,
1.9921875000,31,-292.0000000000,,,
1.9941406250,31,-263.0000000000,,,
1.9960937500,31,-261.0000000000,,,
1.9980468750,31,-263.0000000000,,,
2.0000000000,32,-250.0000000000,,,
2.0019531250,32,-236.0000000000,,,
2.0039062500,32,-219.0000000000,,,
2.0058593750,32,-193.0000000000,,,
2.0078125000,32,-153.0000000000,,,
2.0097656250,32,-124.0000000000,,,
2.0117187500,32,-134.0000000000,,,
2.0136718750,32,-161.0000000000,,,
2.0156250000,32,-164.0000000000,,,
2.0175781250,32,-132.0000000000,,,
2.0195312500,32,-92.0000000000,,,
2.0214843750,32,-72.0000000000,,,
2.0234375000,32,-46.0000000000,,,
2.0253906250,32,-22.0000000000,,,
2.0273437500,32,-2.0000000000,,,
2.0292968750,32,13.0000000000,,,
2.0312500000,32,21.0000000000,,,
2.0332031250,32,29.0000000000,,,
2.0351562500,32,58.0000000000,,,
2.0371093750,32,98.0000000000,,,
2.0390625000,32,106.0000000000,,,
2.0410156250,32,83.0000000000,,,
2.0429687500,32,69.0000000000,,,
2.0449218750,32,81.0000000000,,,
2.0468750000,32,113.0000000000,,,
2.0488281250,32,140.0000000000,,,
2.0507812500,32,130.0000000000,,,
2.0527343750,32,108.0000000000,,,
2.0546875000,32,106.0000000000,,,
2.0566406250,32,85.0000000000,,,
2.0585937500,32,49.0000000000,,,
2.0605468750,32,37.0000000000,,,
2.0625000000,33,44.0000000000,,,
2.0644531250,33,40.0000000000,,,
2.0664062500,33,12.0000000000,,,
2.0683593750,33,-3.0000000000,,,
2.0703125000,33,-1.0000000000,,,
2.0722656250,33,3.0000000000,,,
2.0742187500,33,-11.0000000000,,,
2.0761718750,33,-36.0000000000,,,
2.0781250000,33,-40.0000000000,,,
2.0800781250,33,-21.0000000000,,,
2.0820312500,33,24.0000000000,,,
2.0839843750,33,83.0000000000,,,
2.0859375000,33,102.0000000000,,,
2.0878906250,33,91.0000000000,,,
2.0898437500,33,54.0000000000,,,
2.0917968750,33,13.0000000000,,,
2.0937500000,33,1.0000000000,,,
2.0957031250,33,27.0000000000,,,
2.0976562500,33,61.0000000000,,,
2.0996093750,33,57.0000000000,,,
2.1015625000,33,19.0000000000,,,
2.1035156250,33,35.0000000000,,,
2.1054687500,33,85.0000000000,,,
2.1074218750,33,104.0000000000,,,
2.1093750000,33,98.0000000000,,,
2.1113281250,33,123.0000000000,,,
2.1132812500,33,157.0000000000,,,
2.1152343750,33,133.0000000000,,,
2.1171875000,33,51.0000000000,,,
2.1191406250,33,-28.0000000000,,,
2.1210937500,33,-41.0000000000,,,
2.1230468750,33,-19.0000000000,,,
2.1250000000,34,6.0000000000,,,
2.1269531250,34,17.0000000000,,,
2.1289062500,34,-6.0000000000,,,
2.1308593750,34,-38.0000000000,,,
2.1328125000,34,-37.0000000000,,,
2.1347656250,34,-23.0000000000,,,
2.1367187500,34,0.0000000000,,,
2.1386718750,34,6.0000000000,,,
2.1406250000,34,-37.0000000000,,,
2.1425781250,34,-77.0000000000,,,
2.1445312500,34,-75.0000000000,,,
2.1464843750,34,-62.0000000000,,,
2.1484375000,34,-66.0000000000,,,
2.1503906250,34,-72.0000000000,,,
2.1523437500,34,-73.0000000000,,,
2.1542968750,34,-67.0000000000,,,
2.1562500000,34,-53.0000000000,,,
2.1582031250,34,-45.0000000000,,,
2.1601562500,34,-56.0000000000,,,
2.1621093750,34,-87.0000000000,,,
2.1640625000,34,-93.0000000000,,,
2.1660156250,34,-70.0000000000,,,
2.1679687500,34,-41.0000000000,,,
2.1699218750,34,-40.0000000000,,,
2.1718750000,34,-21.0000000000,,,
2.1738281250,34,-23.0000000000,,,
2.1757812500,34,-57.0000000000,,,
2.1777343750,34,-71.0000000000,,,
2.1796875000,34,-69.0000000000,,,
2.1816406250,34,-75.0000000000,,,
2.1835937500,34,-77.0000000000,,,
2.1855468750,34,-99.0000000000,,,
2.1875000000,35,-137.0000000000,,,
2.1894531250,35,-149.0000000000,,,
2.1914062500,35,-136.0000000000,,,
2.1933593750,35,-118.0000000000,,,
2.1953125000,35,-89.0000000000,,,
2.1972656250,35,-97.0000000000,,,
2.1992187500,35,-148.0000000000,,,
2.2011718750,35,-172.0000000000,,,
2.2031250000,35,-134.0000000000,,,
2.2050781250,35,-113.0000000000,,,
2.2070312500,35,-168.0000000000,,,
2.2089843750,35,-203.0000000000,,,
2.2109375000,35,-148.0000000000,,,
2.2128906250,35,-107.0000000000,,,
2.2148437500,35,-130.0000000000,,,
2.2167968750,35,-179.0000000000,,,
2.2187500000,35,-186.0000000000,,,
2.2207031250,35,-121.0000000000,,,
2.2226562500,35,-60.0000000000,,,
2.2246093750,35,-11.0000000000,,,
2.2265625000,35,44.0000000000,,,
2.2285156250,35,72.0000000000,,,
2.2304687500,35,28.0000000000,,,
2.2324218750,35,-27.0000000000,,,
2.2343750000,35,-38.0000000000,,,
2.2363281250,35,-7.0000000000,,,
2.2382812500,35,7.0000000000,,,
2.2402343750,35,-9.0000000000,,,
2.2421875000,35,-46.0000000000,,,
2.2441406250,35,-74.0000000000,,,
2.2460937500,35,-70.0000000000,,,
2.2480468750,35,-26.0000000000,,,
2.2500000000,36,9.0000000000,,,
2.2519531250,36,25.0000000000,,,
2.2539062500,36,29.0000000000,,,
2.2558593750,36,23.0000000000,,,
2.2578125000,36,26.0000000000,,,
2.2597656250,36,50.0000000000,,,
2.2617187500,36,50.0000000000,,,
2.2636718750,36,51.0000000000,,,
2.2656250000,36,77.0000000000,,,
2.2675781250,36,113.0000000000,,,
2.2695312500,36,132.0000000000,,,
2.2714843750,36,121.0000000000,,,
2.2734375000,36,103.0000000000,,,
2.2753906250,36,103.0000000000,,,
2.2773437500,36,130.0000000000,,,
2.2792968750,36,155.0000000000,,,
2.2812500000,36,166.0000000000,,,
2.2832031250,36,184.0000000000,,,
2.2851562500,36,170.0000000000,,,
2.2871093750,36,166.0000000000,,,
2.2890625000,36,178.0000000000,,,
2.2910156250,36,172.0000000000,,,
2.2929687500,36,188.0000000000,,,
2.2949218750,36,234.0000000000,,,
2.2968750000,36,288.0000000000,,,
2.2988281250,36,345.0000000000,,,
2.3007812500,36,355.0000000000,,,
2.3027343750,36,304.0000000000,,,
2.3046875000,36,280.0000000000,,,
2.3066406250,36,282.0000000000,,,
2.3085937500,36,257.0000000000,,,
2.3105468750,36,221.0000000000,,,
2.3125000000,37,217.0000000000,,,
2.3144531250,37,229.0000000000,,,
2.3164062500,37,214.0000000000,,,
2.3183593750,37,198.0000000000,,,
2.3203125000,37,213.0000000000,,,
2.3222656250,37,242.0000000000,,,
2.3242187500,37,253.0000000000,,,
2.3261718750,37,231.0000000000,,,
2.3281250000,37,197.0000000000,,,
2.3300781250,37,160.0000000000,,,
2.3320312500,37,151.0000000000,,,
2.3339843750,37,155.0000000000,,,
2.3359375000,37,184.0000000000,,,
2.3378906250,37,214.0000000000,,,
2.3398437500,37,202.0000000000,,,
2.3417968750,37,187.0000000000,,,
2.3437500000,37,182.0000000000,,,
2.3457031250,37,176.0000000000,,,
2.3476562500,37,164.0000000000,,,
2.3496093750,37,141.0000000000,,,
2.3515625000,37,123.0000000000,,,
2.3535156250,37,128.0000000000,,,
2.3554687500,37,151.0000000000,,,
2.3574218750,37,163.0000000000,,,
2.3593750000,37,121.0000000000,,,
2.3613281250,37,48.0000000000,,,
2.3632812500,37,-12.0000000000,,,
2.3652343750,37,-20.0000000000,,,
2.3671875000,37,18.0000000000,,,
2.3691406250,37,56.0000000000,,,
2.3710937500,37,57.0000000000,,,
2.3730468750,37,83.0000000000,,,
2.3750000000,38,119.0000000000,,,
2.3769531250,38,124.0000000000,,,
2.3789062500,38,144.0000000000,,,
2.3808593750,38,156.0000000000,,,
2.3828125000,38,139.0000000000,,,
2.3847656250,38,134.0000000000,,,
2.3867187500,38,140.0000000000,,,
2.3886718750,38,134.0000000000,,,
2.3906250000,38,98.0000000000,,,
2.3925781250,38,71.0000000000,,,
2.3945312500,38,83.0000000000,,,
2.3964843750,38,91.0000000000,,,
2.3984375000,38,85.0000000000,,,
2.4003906250,38,74.0000000000,,,
2.4023437500,38,25.0000000000,,,
2.4042968750,38,-39.0000000000,,,
2.4062500000,38,-84.0000000000,,,
2.4082031250,38,-78.0000000000,,,
2.4101562500,38,-40.0000000000,,,
2.4121093750,38,-13.0000000000,,,
2.4140625000,38,-22.0000000000,,,
2.4160156250,38,-27.0000000000,,,
2.4179687500,38,-37.0000000000,,,
2.4199218750,38,-57.0000000000,,,
2.4218750000,38,-40.0000000000,,,
2.4238281250,38,-26.0000000000,,,
2.4257812500,38,-28.0000000000,,,
2.4277343750,38,-38.0000000000,,,
2.4296875000,38,-41.0000000000,,,
2.4316406250,38,-66.0000000000,,,
2.4335937500,38,-87.0000000000,,,
2.4355468750,38,-73.0000000000,,,
2.4375000000,39,-66.0000000000,,,
2.4394531250,39,-61.0000000000,,,
2.4414062500,39,-68.0000000000,,,
2.4433593750,39,-68.0000000000,,,
2.4453125000,39,-57.0000000000,,,
2.4472656250,39,-60.0000000000,,,
2.4492187500,39,-97.0000000000,,,
2.4511718750,39,-110.0000000000,,,
2.4531250000,39,-97.0000000000,,,
2.4550781250,39,-76.0000000000,,,
2.4570312500,39,-68.0000000000,,,
2.4589843750,39,-54.0000000000,,,
2.4609375000,39,-29.0000000000,,,
2.4628906250,39,-8.0000000000,,,
2.4648437500,39,-4.0000000000,,,
2.4667968750,39,-22.0000000000,,,
2.4687500000,39,-19.0000000000,,,
2.4707031250,39,5.0000000000,,,
2.4726562500,39,16.0000000000,,,
2.4746093750,39,-1.0000000000,,,
2.4765625000,39,-30.0000000000,,,
2.4785156250,39,-45.0000000000,,,
2.4804687500,39,-13.0000000000,,,
2.4824218750,39,32.0000000000,,,
2.4843750000,39,26.0000000000,,,
2.4863281250,39,5.0000000000,,,
2.4882812500,39,-3.0000000000,,,
2.4902343750,39,-40.0000000000,,,
2.4921875000,39,-67.0000000000,,,
2.4941406250,39,-59.0000000000,,,
2.4960937500,39,-70.0000000000,,,
2.4980468750,39,-82.0000000000,,,
2.5000000000,40,-56.0000000000,,,
2.5019531250,40,-26.0000000000,,,
2.5039062500,40,-22.0000000000,,,
2.5058593750,40,-12.0000000000,,,
2.5078125000,40,1.0000000000,,,
2.5097656250,40,8.0000000000,,,
2.5117187500,40,23.0000000000,,,
2.5136718750,40,43.0000000000,,,
2.5156250000,40,41.0000000000,,,
2.5175781250,40,36.0000000000,,,
2.5195312500,40,41.0000000000,,,
2.5214843750,40,50.0000000000,,,
2.5234375000,40,35.0000000000,,,
2.5253906250,40,20.0000000000,,,
2.5273437500,40,45.0000000000,,,
2.5292968750,40,60.0000000000,,,
2.5312500000,40,68.0000000000,,,
2.5332031250,40,72.0000000000,,,
2.5351562500,40,80.0000000000,,,
2.5371093750,40,66.0000000000,,,
2.5390625000,40,33.0000000000,,,
2.5410156250,40,1.0000000000,,,
2.5429687500,40,-26.0000000000,,,
2.5449218750,40,-42.0000000000,,,
2.5468750000,40,-56.0000000000,,,
2.5488281250,40,-46.0000000000,,,
2.5507812500,40,-22.0000000000,,,
2.5527343750,40,-13.0000000000,,,
2.5546875000,40,3.0000000000,,,
2.5566406250,40,34.0000000000,,,
2.5585937500,40,71.0000000000,,,
2.5605468750,40,89.0000000000,,,
2.5625000000,41,75.0000000000,,,
2.5644531250,41,72.0000000000,,,
2.5664062500,41,80.0000000000,,,
2.5683593750,41,53.0000000000,,,
2.5703125000,41,22.0000000000,,,
2.5722656250,41,6.0000000000,,,
2.5742187500,41,-5.0000000000,,,
2.5761718750,41,-14.0000000000,,,
2.5781250000,41,1.0000000000,,,
2.5800781250,41,83.0000000000,,,
2.5820312500,41,163.0000000000,,,
2.5839843750,41,135.0000000000,,,
2.5859375000,41,57.0000000000,,,
2.5878906250,41,26.0000000000,,,
2.5898437500,41,43.0000000000,,,
2.5917968750,41,83.0000000000,,,
2.5937500000,41,65.0000000000,,,
2.5957031250,41,-1.0000000000,,,
2.5976562500,41,-45.0000000000,,,
2.5996093750,41,-41.0000000000,,,
2.6015625000,41,7.0000000000,,,
2.6035156250,41,53.0000000000,,,
2.6054687500,41,50.0000000000,,,
2.6074218750,41,22.0000000000,,,
2.6093750000,41,3.0000000000,,,
2.6113281250,41,2.0000000000,,,
2.6132812500,41,-3.0000000000,,,
2.6152343750,41,-17.0000000000,,,
2.6171875000,41,-22.0000000000,,,
2.6191406250,41,-3.0000000000,,,
2.6210937500,41,16.0000000000,,,
2.6230468750,41,6.0000000000,,,
2.6250000000,42,-6.0000000000,,,
2.6269531250,42,-23.0000000000,,,
2.6289062500,42,-52.0000000000,,,
2.6308593750,42,-86.0000000000,,,
2.6328125000,42,-98.0000000000,,,
2.6347656250,42,-82.0000000000,,,
2.6367187500,42,-51.0000000000,,,
2.6386718750,42,-4.0000000000,,,
2.6406250000,42,28.0000000000,,,
2.6425781250,42,51.0000000000,,,
2.6445312500,42,77.0000000000,,,
2.6464843750,42,106.0000000000,,,
2.6484375000,42,128.0000000000,,,
2.6503906250,42,133.0000000000,,,
2.6523437500,42,114.0000000000,,,
2.6542968750,42,116.0000000000,,,
2.6562500000,42,151.0000000000,,,
2.6582031250,42,178.0000000000,,,
2.6601562500,42,166.0000000000,,,
2.6621093750,42,168.0000000000,,,
2.6640625000,42,198.0000000000,,,
2.6660156250,42,194.0000000000,,,
2.6679687500,42,163.0000000000,,,
2.6699218750,42,124.0000000000,,,
2.6718750000,42,104.0000000000,,,
2.6738281250,42,100.0000000000,,,
2.6757812500,42,88.0000000000,,,
2.6777343750,42,52.0000000000,,,
2.6796875000,42,29.0000000000,,,
2.6816406250,42,65.0000000000,,,
2.6835937500,42,130.0000000000,,,
2.6855468750,42,162.0000000000,,,
2.6875000000,43,128.0000000000,,,
2.6894531250,43,83.0000000000,,,
2.6914062500,43,92.0000000000,,,
2.6933593750,43,118.0000000000,,,
2.6953125000,43,120.0000000000,,,
2.6972656250,43,103.0000000000,,,
2.6992187500,43,87.0000000000,,,
2.7011718750,43,81.0000000000,,,
2.7031250000,43,89.0000000000,,,
2.7050781250,43,104.0000000000,,,
2.7070312500,43,92.0000000000,,,
2.7089843750,43,68.0000000000,,,
2.7109375000,43,86.0000000000,,,
2.7128906250,43,138.0000000000,,,
2.7148437500,43,179.0000000000,,,
2.7167968750,43,198.0000000000,,,
2.7187500000,43,215.0000000000,,,
2.7207031250,43,224.0000000000,,,
2.7226562500,43,209.0000000000,,,
2.7246093750,43,156.0000000000,,,
2.7265625000,43,119.0000000000,,,
2.7285156250,43,104.0000000000,,,
2.7304687500,43,115.0000000000,,,
2.7324218750,43,121.0000000000,,,
2.7343750000,43,85.0000000000,,,
2.7363281250,43,68.0000000000,,,
2.7382812500,43,98.0000000000,,,
2.7402343750,43,155.0000000000,,,
2.7421875000,43,195.0000000000,,,
2.7441406250,43,186.0000000000,,,
2.7460937500,43,170.0000000000,,,
2.7480468750,43,172.0000000000,,,
2.7500000000,44,178.0000000000,,,
2.7519531250,44,170.0000000000,,,
2.7539062500,44,145.0000000000,,,
2.7558593750,44,132.0000000000,,,
2.7578125000,44,104.0000000000,,,
2.7597656250,44,133.0000000000,,,
2.7617187500,44,183.0000000000,,,
2.7636718750,44,189.0000000000,,,
2.7656250000,44,178.0000000000,,,
2.7675781250,44,141.0000000000,,,
2.7695312500,44,88.0000000000,,,
2.7714843750,44,44.0000000000,,,
2.7734375000,44,20.0000000000,,,
2.7753906250,44,12.0000000000,,,
2.7773437500,44,20.0000000000,,,
2.7792968750,44,54.0000000000,,,
2.7812500000,44,72.0000000000,,,
2.7832031250,44,51.0000000000,,,
2.7851562500,44,35.0000000000,,,
2.7871093750,44,54.0000000000,,,
2.7890625000,44,84.0000000000,,,
2.7910156250,44,86.0000000000,,,
2.7929687500,44,49.0000000000,,,
2.7949218750,44,-2.0000000000,,,
2.7968750000,44,-25.0000000000,,,
2.7988281250,44,-10.0000000000,,,
2.8007812500,44,26.0000000000,,,
2.8027343750,44,18.0000000000,,,
2.8046875000,44,-22.0000000000,,,
2.8066406250,44,-13.0000000000,,,
2.8085937500,44,34.0000000000,,,
2.8105468750,44,24.0000000000,,,
2.8125000000,45,-6.0000000000,,,
2.8144531250,45,-19.0000000000,,,
2.8164062500,45,-37.0000000000,,,
2.8183593750,45,-55.0000000000,,,
2.8203125000,45,-40.0000000000,,,
2.8222656250,45,4.0000000000,,,
2.8242187500,45,10.0000000000,,,
2.8261718750,45,-36.0000000000,,,
2.8281250000,45,-88.0000000000,,,
2.8300781250,45,-84.0000000000,,,
2.8320312500,45,-53.0000000000,,,
2.8339843750,45,-37.0000000000,,,
2.8359375000,45,-66.0000000000,,,
2.8378906250,45,-125.0000000000,,,
2.8398437500,45,-178.0000000000,,,
2.8417968750,45,-189.0000000000,,,
2.8437500000,45,-172.0000000000,,,
2.8457031250,45,-158.0000000000,,,
2.8476562500,45,-162.0000000000,,,
2.8496093750,45,-179.0000000000,,,
2.8515625000,45,-190.0000000000,,,
2.8535156250,45,-194.0000000000,,,
2.8554687500,45,-166.0000000000,,,
2.8574218750,45,-124.0000000000,,,
2.8593750000,45,-106.0000000000,,,
2.8613281250,45,-94.0000000000,,,
2.8632812500,45,-88.0000000000,,,
2.8652343750,45,-77.0000000000,,,
2.8671875000,45,-66.0000000000,,,
2.8691406250,45,-70.0000000000,,,
2.8710937500,45,-81.0000000000,,,
2.8730468750,45,-55.0000000000,,,
2.8750000000,46,-7.0000000000,,,
2.8769531250,46,5.0000000000,,,
2.8789062500,46,7.0000000000,,,
2.8808593750,46,29.0000000000,,,
2.8828125000,46,35.0000000000,,,
2.8847656250,46,12.0000000000,,,
2.8867187500,46,3.0000000000,,,
2.8886718750,46,1.0000000000,,,
2.8906250000,46,5.0000000000,,,
2.8925781250,46,2.0000000000,,,
2.8945312500,46,-22.0000000000,,,
2.8964843750,46,-24.0000000000,,,
2.8984375000,46,12.0000000000,,,
2.9003906250,46,22.0000000000,,,
2.9023437500,46,33.0000000000,,,
2.9042968750,46,69.0000000000,,,
2.9062500000,46,64.0000000000,,,
2.9082031250,46,26.0000000000,,,
2.9101562500,46,12.0000000000,,,
2.9121093750,46,21.0000000000,,,
2.9140625000,46,44.0000000000,,,
2.9160156250,46,58.0000000000,,,
2.9179687500,46,75.0000000000,,,
2.9199218750,46,100.0000000000,,,
2.9218750000,46,105.0000000000,,,
2.9238281250,46,86.0000000000,,,
2.9257812500,46,24.0000000000,,,
2.9277343750,46,-36.0000000000,,,
2.9296875000,46,-1.0000000000,,,
2.9316406250,46,139.0000000000,,,
2.9335937500,46,241.0000000000,,,
2.9355468750,46,225.0000000000,,,
2.9375000000,47,157.0000000000,,,
2.9394531250,47,131.0000000000,,,
2.9414062500,47,161.0000000000,,,
2.9433593750,47,217.0000000000,,,
2.9453125000,47,225.0000000000,,,
2.9472656250,47,180.0000000000,,,
2.9492187500,47,132.0000000000,,,
2.9511718750,47,113.0000000000,,,
2.9531250000,47,129.0000000000,,,
2.9550781250,47,168.0000000000,,,
2.9570312500,47,197.0000000000,,,
2.9589843750,47,201.0000000000,,,
2.9609375000,47,181.0000000000,,,
2.9628906250,47,145.0000000000,,,
2.9648437500,47,137.0000000000,,,
2.9667968750,47,137.0000000000,,,
2.9687500000,47,121.0000000000,,,
2.9707031250,47,82.0000000000,,,
2.9726562500,47,55.0000000000,,,
2.9746093750,47,70.0000000000,,,
2.9765625000,47,86.0000000000,,,
2.9785156250,47,84.0000000000,,,
2.9804687500,47,64.0000000000,,,
2.9824218750,47,50.0000000000,,,
2.9843750000,47,82.0000000000,,,
2.9863281250,47,112.0000000000,,,
2.9882812500,47,91.0000000000,,,
2.9902343750,47,81.0000000000,,,
2.9921875000,47,120.0000000000,,,
2.9941406250,47,172.0000000000,,,
2.9960937500,47,176.0000000000,,,
2.9980468750,47,132.0000000000,,,
3.0000000000,48,80.0000000000,,,
3.0019531250,48,36.0000000000,,,
3.0039062500,48,26.0000000000,,,
3.0058593750,48,44.0000000000,,,
3.0078125000,48,48.0000000000,,,
3.0097656250,48,41.0000000000,,,
3.0117187500,48,54.0000000000,,,
3.0136718750,48,87.0000000000,,,
3.0156250000,48,96.0000000000,,,
3.0175781250,48,77.0000000000,,,
3.0195312500,48,70.0000000000,,,
3.0214843750,48,64.0000000000,,,
3.0234375000,48,50.0000000000,,,
3.0253906250,48,40.0000000000,,,
3.0273437500,48,33.0000000000,,,
3.0292968750,48,25.0000000000,,,
3.0312500000,48,25.0000000000,,,
3.0332031250,48,10.0000000000,,,
3.0351562500,48,-14.0000000000,,,
3.0371093750,48,-4.0000000000,,,
3.0390625000,48,41.0000000000,,,
3.0410156250,48,59.0000000000,,,
3.0429687500,48,25.0000000000,,,
3.0449218750,48,-24.0000000000,,,
3.0468750000,48,-66.0000000000,,,
3.0488281250,48,-66.0000000000,,,
3.0507812500,48,-39.0000000000,,,
3.0527343750,48,-23.0000000000,,,
3.0546875000,48,-17.0000000000,,,
3.0566406250,48,-22.0000000000,,,
3.0585937500,48,-45.0000000000,,,
3.0605468750,48,-51.0000000000,,,
3.0625000000,49,-26.0000000000,,,
3.0644531250,49,1.0000000000,,,
3.0664062500,49,16.0000000000,,,
3.0683593750,49,-1.0000000000,,,
3.0703125000,49,-9.0000000000,,,
3.0722656250,49,-14.0000000000,,,
3.0742187500,49,-25.0000000000,,,
3.0761718750,49,-22.0000000000,,,
3.0781250000,49,-9.0000000000,,,
3.0800781250,49,-5.0000000000,,,
3.0820312500,49,5.0000000000,,,
3.0839843750,49,9.0000000000,,,
3.0859375000,49,-24.0000000000,,,
3.0878906250,49,-22.0000000000,,,
3.0898437500,49,4.0000000000,,,
3.0917968750,49,6.0000000000,,,
3.0937500000,49,-40.0000000000,,,
3.0957031250,49,-97.0000000000,,,
3.0976562500,49,-108.0000000000,,,
3.0996093750,49,-98.0000000000,,,
3.1015625000,49,-114.0000000000,,,
3.1035156250,49,-146.0000000000,,,
3.1054687500,49,-173.0000000000,,,
3.1074218750,49,-194.0000000000,,,
3.1093750000,49,-194.0000000000,,,
3.1113281250,49,-157.0000000000,,,
3.1132812500,49,-133.0000000000,,,
3.1152343750,49,-132.0000000000,,,
3.1171875000,49,-140.0000000000,,,
3.1191406250,49,-124.0000000000,,,
3.1210937500,49,-94.0000000000,,,
3.1230468750,49,-85.0000000000,,,
3.1250000000,50,-94.0000000000,,,
3.1269531250,50,-59.0000000000,,,
3.1289062500,50,0.0000000000,,,
3.1308593750,50,45.0000000000,,,
3.1328125000,50,43.0000000000,,,
3.1347656250,50,20.0000000000,,,
3.1367187500,50,17.0000000000,,,
3.1386718750,50,16.0000000000,,,
3.1406250000,50,12.0000000000,,,
3.1425781250,50,12.0000000000,,,
3.1445312500,50,-9.0000000000,,,
3.1464843750,50,-40.0000000000,,,
3.1484375000,50,-58.0000000000,,,
3.1503906250,50,-28.0000000000,,,
3.1523437500,50,33.0000000000,,,
3.1542968750,50,60.0000000000,,,
3.1562500000,50,48.0000000000,,,
3.1582031250,50,20.0000000000,,,
3.1601562500,50,-11.0000000000,,,
3.1621093750,50,-25.0000000000,,,
3.1640625000,50,-25.0000000000,,,
3.1660156250,50,-34.0000000000,,,
3.1679687500,50,-34.0000000000,,,
3.1699218750,50,-41.0000000000,,,
3.1718750000,50,-50.0000000000,,,
3.1738281250,50,-19.0000000000,,,
3.1757812500,50,52.0000000000,,,
3.1777343750,50,84.0000000000,,,
3.1796875000,50,51.0000000000,,,
3.1816406250,50,53.0000000000,,,
3.1835937500,50,58.0000000000,,,
3.1855468750,50,19.0000000000,,,
3.1875000000,51,-4.0000000000,,,
3.1894531250,51,-6.0000000000,,,
3.1914062500,51,18.0000000000,,,
3.1933593750,51,40.0000000000,,,
3.1953125000,51,67.0000000000,,,
3.1972656250,51,99.0000000000,,,
3.1992187500,51,121.0000000000,,,
3.2011718750,51,109.0000000000,,,
3.2031250000,51,102.0000000000,,,
3.2050781250,51,144.0000000000,,,
3.2070312500,51,169.0000000000,,,
3.2089843750,51,138.0000000000,,,
3.2109375000,51,86.0000000000,,,
3.2128906250,51,69.0000000000,,,
3.2148437500,51,88.0000000000,,,
3.2167968750,51,103.0000000000,,,
3.2187500000,51,114.0000000000,,,
3.2207031250,51,129.0000000000,,,
3.2226562500,51,150.0000000000,,,
3.2246093750,51,182.0000000000,,,
3.2265625000,51,188.0000000000,,,
3.2285156250,51,155.0000000000,,,
3.2304687500,51,104.0000000000,,,
3.2324218750,51,66.0000000000,,,
3.2343750000,51,55.0000000000,,,
3.2363281250,51,77.0000000000,,,
3.2382812500,51,98.0000000000,,,
3.2402343750,51,116.0000000000,,,
3.2421875000,51,138.0000000000,,,
3.2441406250,51,150.0000000000,,,
3.2460937500,51,148.0000000000,,,
3.2480468750,51,164.0000000000,,,
3.2500000000,52,220.0000000000,,,
3.2519531250,52,249.0000000000,,,
3.2539062500,52,213.0000000000,,,
3.2558593750,52,156.0000000000,,,
3.2578125000,52,119.0000000000,,,
3.2597656250,52,91.0000000000,,,
3.2617187500,52,98.0000000000,,,
3.2636718750,52,138.0000000000,,,
3.2656250000,52,146.0000000000,,,
3.2675781250,52,137.0000000000,,,
3.2695312500,52,146.0000000000,,,
3.2714843750,52,154.0000000000,,,
3.2734375000,52,151.0000000000,,,
3.2753906250,52,167.0000000000,,,
3.2773437500,52,188.0000000000,,,
3.2792968750,52,186.0000000000,,,
3.2812500000,52,167.0000000000,,,
3.2832031250,52,154.0000000000,,,
3.2851562500,52,147.0000000000,,,
3.2871093750,52,150.0000000000,,,
3.2890625000,52,172.0000000000,,,
3.2910156250,52,199.0000000000,,,
3.2929687500,52,217.0000000000,,,
3.2949218750,52,203.0000000000,,,
3.2968750000,52,182.0000000000,,,
3.2988281250,52,181.0000000000,,,
3.3007812500,52,166.0000000000,,,
3.3027343750,52,130.0000000000,,,
3.3046875000,52,106.0000000000,,,
3.3066406250,52,92.0000000000,,,
3.3085937500,52,99.0000000000,,,
3.3105468750,52,101.0000000000,,,
3.3125000000,53,72.0000000000,,,
3.3144531250,53,54.0000000000,,,
3.3164062500,53,60.0000000000,,,
3.3183593750,53,90.0000000000,,,
3.3203125000,53,119.0000000000,,,
3.3222656250,53,136.0000000000,,,
3.3242187500,53,92.0000000000,,,
3.3261718750,53,67.0000000000,,,
3.3281250000,53,114.0000000000,,,
3.3300781250,53,172.0000000000,,,
3.3320312500,53,196.0000000000,,,
3.3339843750,53,188.0000000000,,,
3.3359375000,53,148.0000000000,,,
3.3378906250,53,104.0000000000,,,
3.3398437500,53,89.0000000000,,,
3.3417968750,53,100.0000000000,,,
3.3437500000,53,99.0000000000,,,
3.3457031250,53,74.0000000000,,,
3.3476562500,53,93.0000000000,,,
3.3496093750,53,157.0000000000,,,
3.3515625000,53,194.0000000000,,,
3.3535156250,53,189.0000000000,,,
3.3554687500,53,198.0000000000,,,
3.3574218750,53,219.0000000000,,,
3.3593750000,53,213.0000000000,,,
3.3613281250,53,156.0000000000,,,
3.3632812500,53,122.0000000000,,,
3.3652343750,53,115.0000000000,,,
3.3671875000,53,70.0000000000,,,
3.3691406250,53,-20.0000000000,,,
3.3710937500,53,-55.0000000000,,,
3.3730468750,53,-20.0000000000,,,
3.3750000000,54,48.0000000000,,,
3.3769531250,54,91.0000000000,,,
3.3789062500,54,119.0000000000,,,
3.3808593750,54,194.0000000000,,,
3.3828125000,54,252.0000000000,,,
3.3847656250,54,242.0000000000,,,
3.3867187500,54,214.0000000000,,,
3.3886718750,54,203.0000000000,,,
3.3906250000,54,182.0000000000,,,
3.3925781250,54,128.0000000000,,,
3.3945312500,54,69.0000000000,,,
3.3964843750,54,42.0000000000,,,
3.3984375000,54,58.0000000000,,,
3.4003906250,54,92.0000000000,,,
3.4023437500,54,107.0000000000,,,
3.4042968750,54,71.0000000000,,,
3.4062500000,54,21.0000000000,,,
3.4082031250,54,-11.0000000000,,,
3.4101562500,54,-67.0000000000,,,
3.4121093750,54,-97.0000000000,,,
3.4140625000,54,-82.0000000000,,,
3.4160156250,54,-86.0000000000,,,
3.4179687500,54,-93.0000000000,,,
3.4199218750,54,-36.0000000000,,,
3.4218750000,54,26.0000000000,,,
3.4238281250,54,55.0000000000,,,
3.4257812500,54,37.0000000000,,,
3.4277343750,54,22.0000000000,,,
3.4296875000,54,20.0000000000,,,
3.4316406250,54,2.0000000000,,,
3.4335937500,54,-43.0000000000,,,
3.4355468750,54,-91.0000000000,,,
3.4375000000,55,-92.0000000000,,,
3.4394531250,55,-85.0000000000,,,
3.4414062500,55,-122.0000000000,,,
3.4433593750,55,-164.0000000000,,,
3.4453125000,55,-181.0000000000,,,
3.4472656250,55,-140.0000000000,,,
3.4492187500,55,-109.0000000000,,,
3.4511718750,55,-139.0000000000,,,
3.4531250000,55,-194.0000000000,,,
3.4550781250,55,-228.0000000000,,,
3.4570312500,55,-210.0000000000,,,
3.4589843750,55,-131.0000000000,,,
3.4609375000,55,-50.0000000000,,,
3.4628906250,55,-55.0000000000,,,
3.4648437500,55,-170.0000000000,,,
3.4667968750,55,-235.0000000000,,,
3.4687500000,55,-216.0000000000,,,
3.4707031250,55,-210.0000000000,,,
3.4726562500,55,-214.0000000000,,,
3.4746093750,55,-173.0000000000,,,
3.4765625000,55,-155.0000000000,,,
3.4785156250,55,-197.0000000000,,,
3.4804687500,55,-238.0000000000,,,
3.4824218750,55,-227.0000000000,,,
3.4843750000,55,-145.0000000000,,,
3.4863281250,55,-70.0000000000,,,
3.4882812500,55,-86.0000000000,,,
3.4902343750,55,-108.0000000000,,,
3.4921875000,55,-105.0000000000,,,
3.4941406250,55,-133.0000000000,,,
3.4960937500,55,-132.0000000000,,,
3.4980468750,55,-100.0000000000,,,
3.5000000000,56,-74.0000000000,,,
3.5019531250,56,-88.0000000000,,,
3.5039062500,56,-150.0000000000,,,
3.5058593750,56,-197.0000000000,,,
3.5078125000,56,-171.0000000000,,,
3.5097656250,56,-100.0000000000,,,
3.5117187500,56,-20.0000000000,,,
3.5136718750,56,26.0000000000,,,
3.5156250000,56,29.0000000000,,,
3.5175781250,56,-11.0000000000,,,
3.5195312500,56,-76.0000000000,,,
3.5214843750,56,-60.0000000000,,,
3.5234375000,56,34.0000000000,,,
3.5253906250,56,68.0000000000,,,
3.5273437500,56,32.0000000000,,,
3.5292968750,56,5.0000000000,,,
3.5312500000,56,16.0000000000,,,
3.5332031250,56,52.0000000000,,,
3.5351562500,56,104.0000000000,,,
3.5371093750,56,154.0000000000,,,
3.5390625000,56,134.0000000000,,,
3.5410156250,56,148.0000000000,,,
3.5429687500,56,198.0000000000,,,
3.5449218750,56,189.0000000000,,,
3.5468750000,56,160.0000000000,,,
3.5488281250,56,180.0000000000,,,
3.5507812500,56,237.0000000000,,,
3.5527343750,56,272.0000000000,,,
3.5546875000,56,246.0000000000,,,
3.5566406250,56,154.0000000000,,,
3.5585937500,56,100.0000000000,,,
3.5605468750,56,154.0000000000,,,
3.5625000000,57,213.0000000000,,,
3.5644531250,57,173.0000000000,,,
3.5664062500,57,115.0000000000,,,
3.5683593750,57,104.0000000000,,,
3.5703125000,57,128.0000000000,,,
3.5722656250,57,153.0000000000,,,
3.5742187500,57,166.0000000000,,,
3.5761718750,57,172.0000000000,,,
3.5781250000,57,155.0000000000,,,
3.5800781250,57,123.0000000000,,,
3.5820312500,57,149.0000000000,,,
3.5839843750,57,225.0000000000,,,
3.5859375000,57,246.0000000000,,,
3.5878906250,57,203.0000000000,,,
3.5898437500,57,205.0000000000,,,
3.5917968750,57,232.0000000000,,,
3.5937500000,57,211.0000000000,,,
3.5957031250,57,167.0000000000,,,
3.5976562500,57,129.0000000000,,,
3.5996093750,57,73.0000000000,,,
3.6015625000,57,9.0000000000,,,
3.6035156250,57,0.0000000000,,,
3.6054687500,57,37.0000000000,,,
3.6074218750,57,90.0000000000,,,
3.6093750000,57,139.0000000000,,,
3.6113281250,57,105.0000000000,,,
3.6132812500,57,38.0000000000,,,
3.6152343750,57,42.0000000000,,,
3.6171875000,57,104.0000000000,,,
3.6191406250,57,144.0000000000,,,
3.6210937500,57,85.0000000000,,,
3.6230468750,57,-28.0000000000,,,
3.6250000000,58,-100.0000000000,,,
3.6269531250,58,-85.0000000000,,,
3.6289062500,58,-35.0000000000,,,
3.6308593750,58,-3.0000000000,,,
3.6328125000,58,17.0000000000,,,
3.6347656250,58,41.0000000000,,,
3.6367187500,58,52.0000000000,,,
3.6386718750,58,37.0000000000,,,
3.6406250000,58,25.0000000000,,,
3.6425781250,58,40.0000000000,,,
3.6445312500,58,75.0000000000,,,
3.6464843750,58,108.0000000000,,,
3.6484375000,58,172.0000000000,,,
3.6503906250,58,240.0000000000,,,
3.6523437500,58,186.0000000000,,,
3.6542968750,58,51.0000000000,,,
3.6562500000,58,-35.0000000000,,,
3.6582031250,58,-28.0000000000,,,
3.6601562500,58,-8.0000000000,,,
3.6621093750,58,-29.0000000000,,,
3.6640625000,58,-36.0000000000,,,
3.6660156250,58,-10.0000000000,,,
3.6679687500,58,-11.0000000000,,,
3.6699218750,58,-26.0000000000,,,
3.6718750000,58,-8.0000000000,,,
3.6738281250,58,44.0000000000,,,
3.6757812500,58,92.0000000000,,,
3.6777343750,58,67.0000000000,,,
3.6796875000,58,9.0000000000,,,
3.6816406250,58,-28.0000000000,,,
3.6835937500,58,-45.0000000000,,,
3.6855468750,58,-44.0000000000,,,
3.6875000000,59,-53.0000000000,,,
3.6894531250,59,-75.0000000000,,,
3.6914062500,59,-72.0000000000,,,
3.6933593750,59,-44.0000000000,,,
3.6953125000,59,-26.0000000000,,,
3.6972656250,59,-14.0000000000,,,
3.6992187500,59,25.0000000000,,,
3.7011718750,59,70.0000000000,,,
3.7031250000,59,101.0000000000,,,
3.7050781250,59,104.0000000000,,,
3.7070312500,59,83.0000000000,,,
3.7089843750,59,71.0000000000,,,
3.7109375000,59,56.0000000000,,,
3.7128906250,59,7.0000000000,,,
3.7148437500,59,-54.0000000000,,,
3.7167968750,59,-56.0000000000,,,
3.7187500000,59,35.0000000000,,,
3.7207031250,59,112.0000000000,,,
3.7226562500,59,84.0000000000,,,
3.7246093750,59,11.0000000000,,,
3.7265625000,59,-19.0000000000,,,
3.7285156250,59,-5.0000000000,,,
3.7304687500,59,21.0000000000,,,
3.7324218750,59,7.0000000000,,,
3.7343750000,59,-38.0000000000,,,
3.7363281250,59,-62.0000000000,,,
3.7382812500,59,-58.0000000000,,,
3.7402343750,59,-41.0000000000,,,
3.7421875000,59,-33.0000000000,,,
3.7441406250,59,-23.0000000000,,,
3.7460937500,59,-1.0000000000,,,
3.7480468750,59,20.0000000000,,,
3.7500000000,60,24.0000000000,,,
3.7519531250,60,21.0000000000,,,
3.7539062500,60,-2.0000000000,,,
3.7558593750,60,-4.0000000000,,,
3.7578125000,60,26.0000000000,,,
3.7597656250,60,51.0000000000,,,
3.7617187500,60,34.0000000000,,,
3.7636718750,60,19.0000000000,,,
3.7656250000,60,28.0000000000,,,
3.7675781250,60,19.0000000000,,,
3.7695312500,60,-7.0000000000,,,
3.7714843750,60,-28.0000000000,,,
3.7734375000,60,-8.0000000000,,,
3.7753906250,60,53.0000000000,,,
3.7773437500,60,92.0000000000,,,
3.7792968750,60,44.0000000000,,,
3.7812500000,60,-8.0000000000,,,
3.7832031250,60,-8.0000000000,,,
3.7851562500,60,5.0000000000,,,
3.7871093750,60,27.0000000000,,,
3.7890625000,60,32.0000000000,,,
3.7910156250,60,28.0000000000,,,
3.7929687500,60,32.0000000000,,,
3.7949218750,60,37.0000000000,,,
3.7968750000,60,40.0000000000,,,
3.7988281250,60,28.0000000000,,,
3.8007812500,60,22.0000000000,,,
3.8027343750,60,18.0000000000,,,
3.8046875000,60,4.0000000000,,,
3.8066406250,60,20.0000000000,,,
3.8085937500,60,39.0000000000,,,
3.8105468750,60,6.0000000000,,,
3.8125000000,61,-7.0000000000,,,
3.8144531250,61,21.0000000000,,,
3.8164062500,61,36.0000000000,,,
3.8183593750,61,26.0000000000,,,
3.8203125000,61,34.0000000000,,,
3.8222656250,61,64.0000000000,,,
3.8242187500,61,70.0000000000,,,
3.8261718750,61,27.0000000000,,,
3.8281250000,61,-17.0000000000,,,
3.8300781250,61,0.0000000000,,,
3.8320312500,61,38.0000000000,,,
3.8339843750,61,12.0000000000,,,
3.8359375000,61,-50.0000000000,,,
3.8378906250,61,-62.0000000000,,,
3.8398437500,61,-21.0000000000,,,
3.8417968750,61,-2.0000000000,,,
3.8437500000,61,-4.0000000000,,,
3.8457031250,61,-11.0000000000,,,
3.8476562500,61,-11.0000000000,,,
3.8496093750,61,-4.0000000000,,,
3.8515625000,61,-10.0000000000,,,
3.8535156250,61,-37.0000000000,,,
3.8554687500,61,-46.0000000000,,,
3.8574218750,61,-40.0000000000,,,
3.8593750000,61,-25.0000000000,,,
3.8613281250,61,-27.0000000000,,,
3.8632812500,61,-22.0000000000,,,
3.8652343750,61,-33.0000000000,,,
3.8671875000,61,-24.0000000000,,,
3.8691406250,61,25.0000000000,,,
3.8710937500,61,43.0000000000,,,
3.8730468750,61,38.0000000000,,,
3.8750000000,62,38.0000000000,,,
3.8769531250,62,40.0000000000,,,
3.8789062500,62,42.0000000000,,,
3.8808593750,62,41.0000000000,,,
3.8828125000,62,27.0000000000,,,
3.8847656250,62,27.0000000000,,,
3.8867187500,62,20.0000000000,,,
3.8886718750,62,3.0000000000,,,
3.8906250000,62,5.0000000000,,,
3.8925781250,62,20.0000000000,,,
3.8945312500,62,12.0000000000,,,
3.8964843750,62,-11.0000000000,,,
3.8984375000,62,-18.0000000000,,,
3.9003906250,62,5.0000000000,,,
3.9023437500,62,28.0000000000,,,
3.9042968750,62,35.0000000000,,,
3.9062500000,62,28.0000000000,,,
3.9082031250,62,5.0000000000,,,
3.9101562500,62,-17.0000000000,,,
3.9121093750,62,-41.0000000000,,,
3.9140625000,62,-54.0000000000,,,
3.9160156250,62,-14.0000000000,,,
3.9179687500,62,7.0000000000,,,
3.9199218750,62,20.0000000000,,,
3.9218750000,62,17.0000000000,,,
3.9238281250,62,20.0000000000,,,
3.9257812500,62,54.0000000000,,,
3.9277343750,62,101.0000000000,,,
3.9296875000,62,97.0000000000,,,
3.9316406250,62,101.0000000000,,,
3.9335937500,62,122.0000000000,,,
3.9355468750,62,115.0000000000,,,
3.9375000000,63,125.0000000000,,,
3.9394531250,63,170.0000000000,,,
3.9414062500,63,214.0000000000,,,
3.9433593750,63,269.0000000000,,,
3.9453125000,63,310.0000000000,,,
3.9472656250,63,289.0000000000,,,
3.9492187500,63,265.0000000000,,,
3.9511718750,63,289.0000000000,,,
3.9531250000,63,332.0000000000,,,
3.9550781250,63,355.0000000000,,,
3.9570312500,63,385.0000000000,,,
3.9589843750,63,433.0000000000,,,
3.9609375000,63,449.0000000000,,,
3.9628906250,63,436.0000000000,,,
3.9648437500,63,421.0000000000,,,
3.9667968750,63,453.0000000000,,,
3.9687500000,63,547.0000000000,,,
3.9707031250,63,576.0000000000,,,
3.9726562500,63,489.0000000000,,,
3.9746093750,63,392.0000000000,,,
3.9765625000,63,394.0000000000,,,
3.9785156250,63,471.0000000000,,,
3.9804687500,63,491.0000000000,,,
3.9824218750,63,444.0000000000,,,
3.9843750000,63,394.0000000000,,,
3.9863281250,63,357.0000000000,,,
3.9882812500,63,345.0000000000,,,
3.9902343750,63,317.0000000000,,,
3.9921875000,63,272.0000000000,,,
3.9941406250,63,219.0000000000,,,
3.9960937500,63,162.0000000000,,,
3.9980468750,63,124.0000000000,,,
4.0000000000,64,125.0000000000,,,
4.0019531250,64,141.0000000000,,,
4.0039062500,64,112.0000000000,,,
4.0058593750,64,48.0000000000,,,
4.0078125000,64,12.0000000000,,,
4.0097656250,64,21.0000000000,,,
4.0117187500,64,18.0000000000,,,
4.0136718750,64,6.0000000000,,,
4.0156250000,64,-11.0000000000,,,
4.0175781250,64,-53.0000000000,,,
4.0195312500,64,-74.0000000000,,,
4.0214843750,64,-77.0000000000,,,
4.0234375000,64,-90.0000000000,,,
4.0253906250,64,-94.0000000000,,,
4.0273437500,64,-115.0000000000,,,
4.0292968750,64,-140.0000000000,,,
4.0312500000,64,-140.0000000000,,,
4.0332031250,64,-134.0000000000,,,
4.0351562500,64,-121.0000000000,,,
4.0371093750,64,-137.0000000000,,,
4.0390625000,64,-163.0000000000,,,
4.0410156250,64,-174.0000000000,,,
4.0429687500,64,-154.0000000000,,,
4.0449218750,64,-135.0000000000,,,
4.0468750000,64,-135.0000000000,,,
4.0488281250,64,-161.0000000000,,,
4.0507812500,64,-203.0000000000,,,
4.0527343750,64,-218.0000000000,,,
4.0546875000,64,-197.0000000000,,,
4.0566406250,64,-182.0000000000,,,
4.0585937500,64,-172.0000000000,,,
4.0605468750,64,-171.0000000000,,,
4.0625000000,65,-168.0000000000,,,
4.0644531250,65,-173.0000000000,,,
4.0664062500,65,-184.0000000000,,,
4.0683593750,65,-187.0000000000,,,
4.0703125000,65,-194.0000000000,,,
4.0722656250,65,-200.0000000000,,,
4.0742187500,65,-197.0000000000,,,
4.0761718750,65,-196.0000000000,,,
4.0781250000,65,-185.0000000000,,,
4.0800781250,65,-168.0000000000,,,
4.0820312500,65,-126.0000000000,,,
4.0839843750,65,-98.0000000000,,,
4.0859375000,65,-102.0000000000,,,
4.0878906250,65,-125.0000000000,,,
4.0898437500,65,-134.0000000000,,,
4.0917968750,65,-106.0000000000,,,
4.0937500000,65,-76.0000000000,,,
4.0957031250,65,-58.0000000000,,,
4.0976562500,65,-58.0000000000,,,
4.0996093750,65,-59.0000000000,,,
4.1015625000,65,-50.0000000000,,,
4.1035156250,65,-45.0000000000,,,
4.1054687500,65,-44.0000000000,,,
4.1074218750,65,-51.0000000000,,,
4.1093750000,65,-71.0000000000,,,
4.1113281250,65,-104.0000000000,,,
4.1132812500,65,-139.0000000000,,,
4.1152343750,65,-162.0000000000,,,
4.1171875000,65,-151.0000000000,,,
4.1191406250,65,-138.0000000000,,,
4.1210937500,65,-138.0000000000,,,
4.1230468750,65,-158.0000000000,,,
4.1250000000,66,-184.0000000000,,,
4.1269531250,66,-188.0000000000,,,
4.1289062500,66,-196.0000000000,,,
4.1308593750,66,-193.0000000000,,,
4.1328125000,66,-166.0000000000,,,
4.1347656250,66,-146.0000000000,,,
4.1367187500,66,-138.0000000000,,,
4.1386718750,66,-120.0000000000,,,
4.1406250000,66,-87.0000000000,,,
4.1425781250,66,-44.0000000000,,,
4.1445312500,66,-10.0000000000,,,
4.1464843750,66,8.0000000000,,,
4.1484375000,66,21.0000000000,,,
4.1503906250,66,41.0000000000,,,
4.1523437500,66,66.0000000000,,,
4.1542968750,66,80.0000000000,,,
4.1562500000,66,80.0000000000,,,
4.1582031250,66,102.0000000000,,,
4.1601562500,66,152.0000000000,,,
4.1621093750,66,182.0000000000,,,
4.1640625000,66,200.0000000000,,,
4.1660156250,66,219.0000000000,,,
4.1679687500,66,214.0000000000,,,
4.1699218750,66,201.0000000000,,,
4.1718750000,66,185.0000000000,,,
4.1738281250,66,202.0000000000,,,
4.1757812500,66,237.0000000000,,,
4.1777343750,66,249.0000000000,,,
4.1796875000,66,245.0000000000,,,
4.1816406250,66,235.0000000000,,,
4.1835937500,66,221.0000000000,,,
4.1855468750,66,224.0000000000,,,
4.1875000000,67,234.0000000000,,,
4.1894531250,67,246.0000000000,,,
4.1914062500,67,247.0000000000,,,
4.1933593750,67,236.0000000000,,,
4.1953125000,67,228.0000000000,,,
4.1972656250,67,218.0000000000,,,
4.1992187500,67,196.0000000000,,,
4.2011718750,67,166.0000000000,,,
4.2031250000,67,156.0000000000,,,
4.2050781250,67,172.0000000000,,,
4.2070312500,67,186.0000000000,,,
4.2089843750,67,154.0000000000,,,
4.2109375000,67,104.0000000000,,,
4.2128906250,67,64.0000000000,,,
4.2148437500,67,60.0000000000,,,
4.2167968750,67,92.0000000000,,,
4.2187500000,67,103.0000000000,,,
4.2207031250,67,68.0000000000,,,
4.2226562500,67,20.0000000000,,,
4.2246093750,67,17.0000000000,,,
4.2265625000,67,55.0000000000,,,
4.2285156250,67,68.0000000000,,,
4.2304687500,67,48.0000000000,,,
4.2324218750,67,33.0000000000,,,
4.2343750000,67,36.0000000000,,,
4.2363281250,67,25.0000000000,,,
4.2382812500,67,-1.0000000000,,,
4.2402343750,67,-8.0000000000,,,
4.2421875000,67,23.0000000000,,,
4.2441406250,67,42.0000000000,,,
4.2460937500,67,37.0000000000,,,
4.2480468750,67,64.0000000000,,,
4.2500000000,68,103.0000000000,,,
4.2519531250,68,109.0000000000,,,
4.2539062500,68,73.0000000000,,,
4.2558593750,68,25.0000000000,,,
4.2578125000,68,-3.0000000000,,,
4.2597656250,68,-29.0000000000,,,
4.2617187500,68,-70.0000000000,,,
4.2636718750,68,-91.0000000000,,,
4.2656250000,68,-61.0000000000,,,
4.2675781250,68,13.0000000000,,,
4.2695312500,68,80.0000000000,,,
4.2714843750,68,71.0000000000,,,
4.2734375000,68,23.0000000000,,,
4.2753906250,68,12.0000000000,,,
4.2773437500,68,65.0000000000,,,
4.2792968750,68,91.0000000000,,,
4.2812500000,68,49.0000000000,,,
4.2832031250,68,-18.0000000000,,,
4.2851562500,68,-70.0000000000,,,
4.2871093750,68,-91.0000000000,,,
4.2890625000,68,-86.0000000000,,,
4.2910156250,68,-56.0000000000,,,
4.2929687500,68,-33.0000000000,,,
4.2949218750,68,-41.0000000000,,,
4.2968750000,68,-66.0000000000,,,
4.2988281250,68,-83.0000000000,,,
4.3007812500,68,-90.0000000000,,,
4.3027343750,68,-106.0000000000,,,
4.3046875000,68,-132.0000000000,,,
4.3066406250,68,-147.0000000000,,,
4.3085937500,68,-131.0000000000,,,
4.3105468750,68,-98.0000000000,,,
4.3125000000,69,-55.0000000000,,,
4.3144531250,69,-49.0000000000,,,
4.3164062500,69,-94.0000000000,,,
4.3183593750,69,-125.0000000000,,,
4.3203125000,69,-113.0000000000,,,
4.3222656250,69,-98.0000000000,,,
4.3242187500,69,-110.0000000000,,,
4.3261718750,69,-140.0000000000,,,
4.3281250000,69,-151.0000000000,,,
4.3300781250,69,-133.0000000000,,,
4.3320312500,69,-104.0000000000,,,
4.3339843750,69,-78.0000000000,,,
4.3359375000,69,-59.0000000000,,,
4.3378906250,69,-60.0000000000,,,
4.3398437500,69,-92.0000000000,,,
4.3417968750,69,-114.0000000000,,,
4.3437500000,69,-104.0000000000,,,
4.3457031250,69,-104.0000000000,,,
4.3476562500,69,-120.0000000000,,,
4.3496093750,69,-129.0000000000,,,
4.3515625000,69,-113.0000000000,,,
4.3535156250,69,-83.0000000000,,,
4.3554687500,69,-38.0000000000,,,
4.3574218750,69,-8.0000000000,,,
4.3593750000,69,-33.0000000000,,,
4.3613281250,69,-90.0000000000,,,
4.3632812500,69,-100.0000000000,,,
4.3652343750,69,-70.0000000000,,,
4.3671875000,69,-43.0000000000,,,
4.3691406250,69,-45.0000000000,,,
4.3710937500,69,-77.0000000000,,,
4.3730468750,69,-98.0000000000,,,
4.3750000000,70,-100.0000000000,,,
4.3769531250,70,-97.0000000000,,,
4.3789062500,70,-94.0000000000,,,
4.3808593750,70,-90.0000000000,,,
4.3828125000,70,-115.0000000000,,,
4.3847656250,70,-149.0000000000,,,
4.3867187500,70,-151.0000000000,,,
4.3886718750,70,-126.0000000000,,,
4.3906250000,70,-98.0000000000,,,
4.3925781250,70,-97.0000000000,,,
4.3945312500,70,-104.0000000000,,,
4.3964843750,70,-101.0000000000,,,
4.3984375000,70,-102.0000000000,,,
4.4003906250,70,-90.0000000000,,,
4.4023437500,70,-68.0000000000,,,
4.4042968750,70,-78.0000000000,,,
4.4062500000,70,-115.0000000000,,,
4.4082031250,70,-141.0000000000,,,
4.4101562500,70,-132.0000000000,,,
4.4121093750,70,-104.0000000000,,,
4.4140625000,70,-93.0000000000,,,
4.4160156250,70,-86.0000000000,,,
4.4179687500,70,-59.0000000000,,,
4.4199218750,70,-35.0000000000,,,
4.4218750000,70,-18.0000000000,,,
4.4238281250,70,-10.0000000000,,,
4.4257812500,70,1.0000000000,,,
4.4277343750,70,18.0000000000,,,
4.4296875000,70,12.0000000000,,,
4.4316406250,70,-18.0000000000,,,
4.4335937500,70,-45.0000000000,,,
4.4355468750,70,-56.0000000000,,,
4.4375000000,71,-66.0000000000,,,
4.4394531250,71,-76.0000000000,,,
4.4414062500,71,-55.0000000000,,,
4.4433593750,71,-12.0000000000,,,
4.4453125000,71,9.0000000000,,,
4.4472656250,71,-2.0000000000,,,
4.4492187500,71,-40.0000000000,,,
4.4511718750,71,-72.0000000000,,,
4.4531250000,71,-58.0000000000,,,
4.4550781250,71,-26.0000000000,,,
4.4570312500,71,-8.0000000000,,,
4.4589843750,71,1.0000000000,,,
4.4609375000,71,-10.0000000000,,,
4.4628906250,71,-20.0000000000,,,
4.4648437500,71,-2.0000000000,,,
4.4667968750,71,28.0000000000,,,
4.4687500000,71,42.0000000000,,,
4.4707031250,71,34.0000000000,,,
4.4726562500,71,3.0000000000,,,
4.4746093750,71,-24.0000000000,,,
4.4765625000,71,-36.0000000000,,,
4.4785156250,71,-50.0000000000,,,
4.4804687500,71,-69.0000000000,,,
4.4824218750,71,-84.0000000000,,,
4.4843750000,71,-94.0000000000,,,
4.4863281250,71,-85.0000000000,,,
4.4882812500,71,-73.0000000000,,,
4.4902343750,71,-68.0000000000,,,
4.4921875000,71,-50.0000000000,,,
4.4941406250,71,-5.0000000000,,,
4.4960937500,71,29.0000000000,,,
4.4980468750,71,43.0000000000,,,
4.5000000000,72,52.0000000000,,,
4.5019531250,72,56.0000000000,,,
4.5039062500,72,56.0000000000,,,
4.5058593750,72,50.0000000000,,,
4.5078125000,72,39.0000000000,,,
4.5097656250,72,11.0000000000,,,
4.5117187500,72,-23.0000000000,,,
4.5136718750,72,-30.0000000000,,,
4.5156250000,72,21.0000000000,,,
4.5175781250,72,145.0000000000,,,
4.5195312500,72,212.0000000000,,,
4.5214843750,72,168.0000000000,,,
4.5234375000,72,74.0000000000,,,
4.5253906250,72,12.0000000000,,,
4.5273437500,72,34.0000000000,,,
4.5292968750,72,132.0000000000,,,
4.5312500000,72,201.0000000000,,,
4.5332031250,72,136.0000000000,,,
4.5351562500,72,13.0000000000,,,
4.5371093750,72,19.0000000000,,,
4.5390625000,72,157.0000000000,,,
4.5410156250,72,278.0000000000,,,
4.5429687500,72,280.0000000000,,,
4.5449218750,72,201.0000000000,,,
4.5468750000,72,104.0000000000,,,
4.5488281250,72,26.0000000000,,,
4.5507812500,72,-21.0000000000,,,
4.5527343750,72,-44.0000000000,,,
4.5546875000,72,-57.0000000000,,,
4.5566406250,72,-66.0000000000,,,
4.5585937500,72,-61.0000000000,,,
4.5605468750,72,-38.0000000000,,,
4.5625000000,73,-8.0000000000,,,
4.5644531250,73,10.0000000000,,,
4.5664062500,73,18.0000000000,,,
4.5683593750,73,9.0000000000,,,
4.5703125000,73,-10.0000000000,,,
4.5722656250,73,-36.0000000000,,,
4.5742187500,73,-59.0000000000,,,
4.5761718750,73,-76.0000000000,,,
4.5781250000,73,-70.0000000000,,,
4.5800781250,73,-49.0000000000,,,
4.5820312500,73,-58.0000000000,,,
4.5839843750,73,-97.0000000000,,,
4.5859375000,73,-109.0000000000,,,
4.5878906250,73,-93.0000000000,,,
4.5898437500,73,-76.0000000000,,,
4.5917968750,73,-76.0000000000,,,
4.5937500000,73,-86.0000000000,,,
4.5957031250,73,-88.0000000000,,,
4.5976562500,73,-81.0000000000,,,
4.5996093750,73,-62.0000000000,,,
4.6015625000,73,-51.0000000000,,,
4.6035156250,73,-45.0000000000,,,
4.6054687500,73,-56.0000000000,,,
4.6074218750,73,-74.0000000000,,,
4.6093750000,73,-93.0000000000,,,
4.6113281250,73,-99.0000000000,,,
4.6132812500,73,-74.0000000000,,,
4.6152343750,73,-52.0000000000,,,
4.6171875000,73,-54.0000000000,,,
4.6191406250,73,-59.0000000000,,,
4.6210937500,73,-65.0000000000,,,
4.6230468750,73,-58.0000000000,,,
4.6250000000,74,-54.0000000000,,,
4.6269531250,74,-70.0000000000,,,
4.6289062500,74,-103.0000000000,,,
4.6308593750,74,-153.0000000000,,,
4.6328125000,74,-187.0000000000,,,
4.6347656250,74,-201.0000000000,,,
4.6367187500,74,-196.0000000000,,,
4.6386718750,74,-181.0000000000,,,
4.6406250000,74,-170.0000000000,,,
4.6425781250,74,-169.0000000000,,,
4.6445312500,74,-180.0000000000,,,
4.6464843750,74,-183.0000000000,,,
4.6484375000,74,-170.0000000000,,,
4.6503906250,74,-151.0000000000,,,
4.6523437500,74,-148.0000000000,,,
4.6542968750,74,-152.0000000000,,,
4.6562500000,74,-148.0000000000,,,
4.6582031250,74,-124.0000000000,,,
4.6601562500,74,-98.0000000000,,,
4.6621093750,74,-59.0000000000,,,
4.6640625000,74,-1.0000000000,,,
4.6660156250,74,75.0000000000,,,
4.6679687500,74,122.0000000000,,,
4.6699218750,74,121.0000000000,,,
4.6718750000,74,108.0000000000,,,
4.6738281250,74,101.0000000000,,,
4.6757812500,74,103.0000000000,,,
4.6777343750,74,113.0000000000,,,
4.6796875000,74,117.0000000000,,,
4.6816406250,74,101.0000000000,,,
4.6835937500,74,60.0000000000,,,
4.6855468750,74,48.0000000000,,,
4.6875000000,75,64.0000000000,,,
4.6894531250,75,84.0000000000,,,
4.6914062500,75,75.0000000000,,,
4.6933593750,75,48.0000000000,,,
4.6953125000,75,26.0000000000,,,
4.6972656250,75,29.0000000000,,,
4.6992187500,75,26.0000000000,,,
4.7011718750,75,13.0000000000,,,
4.7031250000,75,10.0000000000,,,
4.7050781250,75,24.0000000000,,,
4.7070312500,75,37.0000000000,,,
4.7089843750,75,23.0000000000,,,
4.7109375000,75,-18.0000000000,,,
4.7128906250,75,-42.0000000000,,,
4.7148437500,75,-21.0000000000,,,
4.7167968750,75,37.0000000000,,,
4.7187500000,75,93.0000000000,,,
4.7207031250,75,130.0000000000,,,
4.7226562500,75,151.0000000000,,,
4.7246093750,75,165.0000000000,,,
4.7265625000,75,164.0000000000,,,
4.7285156250,75,161.0000000000,,,
4.7304687500,75,160.0000000000,,,
4.7324218750,75,153.0000000000,,,
4.7343750000,75,135.0000000000,,,
4.7363281250,75,115.0000000000,,,
4.7382812500,75,96.0000000000,,,
4.7402343750,75,83.0000000000,,,
4.7421875000,75,67.0000000000,,,
4.7441406250,75,53.0000000000,,,
4.7460937500,75,40.0000000000,,,
4.7480468750,75,28.0000000000,,,
4.7500000000,76,16.0000000000,,,
4.7519531250,76,26.0000000000,,,
4.7539062500,76,59.0000000000,,,
4.7558593750,76,74.0000000000,,,
4.7578125000,76,66.0000000000,,,
4.7597656250,76,74.0000000000,,,
4.7617187500,76,92.0000000000,,,
4.7636718750,76,101.0000000000,,,
4.7656250000,76,82.0000000000,,,
4.7675781250,76,39.0000000000,,,
4.7695312500,76,17.0000000000,,,
4.7714843750,76,21.0000000000,,,
4.7734375000,76,24.0000000000,,,
4.7753906250,76,20.0000000000,,,
4.7773437500,76,13.0000000000,,,
4.7792968750,76,36.0000000000,,,
4.7812500000,76,55.0000000000,,,
4.7832031250,76,57.0000000000,,,
4.7851562500,76,43.0000000000,,,
4.7871093750,76,26.0000000000,,,
4.7890625000,76,35.0000000000,33553,4.7890625000,0.0019531250
4.7910156250,76,35.0000000000,33554,4.7910156250,0.0000000000
4.7929687500,76,82.0000000000,,,
4.7949218750,76,133.0000000000,,,
4.7968750000,76,196.0000000000,,,
4.7988281250,76,250.0000000000,,,
4.8007812500,76,284.0000000000,,,
4.8027343750,76,314.0000000000,,,
4.8046875000,76,325.0000000000,,,
4.8066406250,76,306.0000000000,,,
4.8085937500,76,277.0000000000,,,
4.8105468750,76,280.0000000000,,,
4.8125000000,77,299.0000000000,,,
4.8144531250,77,284.0000000000,,,
4.8164062500,77,245.0000000000,,,
4.8183593750,77,228.0000000000,,,
4.8203125000,77,272.0000000000,,,
4.8222656250,77,314.0000000000,,,
4.8242187500,77,308.0000000000,,,
4.8261718750,77,295.0000000000,,,
4.8281250000,77,313.0000000000,,,
4.8300781250,77,346.0000000000,,,
4.8320312500,77,357.0000000000,,,
4.8339843750,77,316.0000000000,,,
4.8359375000,77,275.0000000000,,,
4.8378906250,77,300.0000000000,,,
4.8398437500,77,349.0000000000,,,
4.8417968750,77,361.0000000000,,,
4.8437500000,77,326.0000000000,,,
4.8457031250,77,261.0000000000,,,
4.8476562500,77,193.0000000000,,,
4.8496093750,77,155.0000000000,,,
4.8515625000,77,140.0000000000,,,
4.8535156250,77,130.0000000000,,,
4.8554687500,77,120.0000000000,,,
4.8574218750,77,147.0000000000,,,
4.8593750000,77,197.0000000000,,,
4.8613281250,77,213.0000000000,,,
4.8632812500,77,203.0000000000,,,
4.8652343750,77,209.0000000000,,,
4.8671875000,77,231.0000000000,,,
4.8691406250,77,241.0000000000,,,
4.8710937500,77,215.0000000000,,,
4.8730468750,77,157.0000000000,,,
4.8750000000,78,85.0000000000,,,
4.8769531250,78,41.0000000000,,,
4.8789062500,78,44.0000000000,,,
4.8808593750,78,82.0000000000,,,
4.8828125000,78,116.0000000000,,,
4.8847656250,78,129.0000000000,,,
4.8867187500,78,116.0000000000,,,
4.8886718750,78,72.0000000000,,,
4.8906250000,78,33.0000000000,,,
4.8925781250,78,25.0000000000,,,
4.8945312500,78,12.0000000000,,,
4.8964843750,78,3.0000000000,,,
4.8984375000,78,28.0000000000,,,
4.9003906250,78,65.0000000000,,,
4.9023437500,78,80.0000000000,,,
4.9042968750,78,68.0000000000,,,
4.9062500000,78,52.0000000000,,,
4.9082031250,78,34.0000000000,,,
4.9101562500,78,4.0000000000,,,
4.9121093750,78,-10.0000000000,,,
4.9140625000,78,4.0000000000,,,
4.9160156250,78,37.0000000000,,,
4.9179687500,78,53.0000000000,,,
4.9199218750,78,50.0000000000,,,
4.9218750000,78,48.0000000000,,,
4.9238281250,78,52.0000000000,,,
4.9257812500,78,52.0000000000,,,
4.9277343750,78,37.0000000000,,,
4.9296875000,78,32.0000000000,,,
4.9316406250,78,60.0000000000,,,
4.9335937500,78,75.0000000000,,,
4.9355468750,78,53.0000000000,,,
4.9375000000,79,40.0000000000,,,
4.9394531250,79,52.0000000000,,,
4.9414062500,79,58.0000000000,,,
4.9433593750,79,55.0000000000,,,
4.9453125000,79,55.0000000000,,,
4.9472656250,79,49.0000000000,,,
4.9492187500,79,20.0000000000,,,
4.9511718750,79,8.0000000000,,,
4.9531250000,79,25.0000000000,,,
4.9550781250,79,64.0000000000,,,
4.9570312500,79,104.0000000000,,,
4.9589843750,79,130.0000000000,,,
4.9609375000,79,133.0000000000,,,
4.9628906250,79,114.0000000000,,,
4.9648437500,79,93.0000000000,,,
4.9667968750,79,77.0000000000,,,
4.9687500000,79,65.0000000000,,,
4.9707031250,79,50.0000000000,,,
4.9726562500,79,53.0000000000,,,
4.9746093750,79,73.0000000000,,,
4.9765625000,79,74.0000000000,,,
4.9785156250,79,64.0000000000,,,
4.9804687500,79,66.0000000000,,,
4.9824218750,79,60.0000000000,,,
4.9843750000,79,37.0000000000,,,
4.9863281250,79,2.0000000000,,,
4.9882812500,79,-38.0000000000,,,
4.9902343750,79,-26.0000000000,,,
4.9921875000,79,-3.0000000000,,,
4.9941406250,79,-2.0000000000,,,
4.9960937500,79,29.0000000000,,,
4.9980468750,79,76.0000000000,,,
5.0000000000,80,118.0000000000,,,
5.0019531250,80,139.0000000000,,,
5.0039062500,80,108.0000000000,,,
5.0058593750,80,57.0000000000,,,
5.0078125000,80,23.0000000000,,,
5.0097656250,80,10.0000000000,,,
5.0117187500,80,27.0000000000,,,
5.0136718750,80,43.0000000000,,,
5.0156250000,80,12.0000000000,,,
5.0175781250,80,-13.0000000000,,,
5.0195312500,80,-23.0000000000,,,
5.0214843750,80,1.0000000000,,,
5.0234375000,80,51.0000000000,,,
5.0253906250,80,86.0000000000,,,
5.0273437500,80,76.0000000000,,,
5.0292968750,80,58.0000000000,,,
5.0312500000,80,57.0000000000,,,
5.0332031250,80,59.0000000000,,,
5.0351562500,80,53.0000000000,,,
5.0371093750,80,50.0000000000,,,
5.0390625000,80,64.0000000000,,,
5.0410156250,80,80.0000000000,,,
5.0429687500,80,89.0000000000,,,
5.0449218750,80,99.0000000000,,,
5.0468750000,80,114.0000000000,,,
5.0488281250,80,155.0000000000,,,
5.0507812500,80,225.0000000000,,,
5.0527343750,80,264.0000000000,,,
5.0546875000,80,262.0000000000,,,
5.0566406250,80,252.0000000000,,,
5.0585937500,80,229.0000000000,,,
5.0605468750,80,185.0000000000,,,
5.0625000000,81,165.0000000000,,,
5.0644531250,81,187.0000000000,,,
5.0664062500,81,232.0000000000,,,
5.0683593750,81,251.0000000000,,,
5.0703125000,81,246.0000000000,,,
5.0722656250,81,259.0000000000,,,
5.0742187500,81,291.0000000000,,,
5.0761718750,81,309.0000000000,,,
5.0781250000,81,289.0000000000,,,
5.0800781250,81,244.0000000000,,,
5.0820312500,81,218.0000000000,,,
5.0839843750,81,201.0000000000,,,
5.0859375000,81,187.0000000000,,,
5.0878906250,81,181.0000000000,,,
5.0898437500,81,197.0000000000,,,
5.0917968750,81,244.0000000000,,,
5.0937500000,81,275.0000000000,,,
5.0957031250,81,264.0000000000,,,
5.0976562500,81,240.0000000000,,,
5.0996093750,81,228.0000000000,,,
5.1015625000,81,232.0000000000,,,
5.1035156250,81,199.0000000000,,,
5.1054687500,81,130.0000000000,,,
5.1074218750,81,90.0000000000,,,
5.1093750000,81,109.0000000000,,,
5.1113281250,81,138.0000000000,,,
5.1132812500,81,137.0000000000,,,
5.1152343750,81,150.0000000000,,,
5.1171875000,81,200.0000000000,,,
5.1191406250,81,240.0000000000,,,
5.1210937500,81,245.0000000000,,,
5.1230468750,81,235.0000000000,,,
5.1250000000,82,248.0000000000,,,
5.1269531250,82,260.0000000000,,,
5.1289062500,82,231.0000000000,,,
5.1308593750,82,183.0000000000,,,
5.1328125000,82,167.0000000000,,,
5.1347656250,82,184.0000000000,,,
5.1367187500,82,186.0000000000,,,
5.1386718750,82,153.0000000000,,,
5.1406250000,82,118.0000000000,,,
5.1425781250,82,115.0000000000,,,
5.1445312500,82,138.0000000000,,,
5.1464843750,82,134.0000000000,,,
5.1484375000,82,96.0000000000,,,
5.1503906250,82,85.0000000000,,,
5.1523437500,82,108.0000000000,,,
5.1542968750,82,154.0000000000,,,
5.1562500000,82,193.0000000000,,,
5.1582031250,82,169.0000000000,,,
5.1601562500,82,116.0000000000,,,
5.1621093750,82,106.0000000000,,,
5.1640625000,82,155.0000000000,,,
5.1660156250,82,227.0000000000,,,
5.1679687500,82,246.0000000000,,,
5.1699218750,82,215.0000000000,,,
5.1718750000,82,167.0000000000,,,
5.1738281250,82,132.0000000000,,,
5.1757812500,82,119.0000000000,,,
5.1777343750,82,115.0000000000,,,
5.1796875000,82,91.0000000000,,,
5.1816406250,82,53.0000000000,,,
5.1835937500,82,8.0000000000,,,
5.1855468750,82,-28.0000000000,,,
5.1875000000,83,-50.0000000000,,,
5.1894531250,83,-36.0000000000,,,
5.1914062500,83,-12.0000000000,,,
5.1933593750,83,-4.0000000000,,,
5.1953125000,83,6.0000000000,,,
5.1972656250,83,29.0000000000,,,
5.1992187500,83,52.0000000000,,,
5.2011718750,83,36.0000000000,,,
5.2031250000,83,6.0000000000,,,
5.2050781250,83,22.0000000000,,,
5.2070312500,83,52.0000000000,,,
5.2089843750,83,36.0000000000,,,
5.2109375000,83,23.0000000000,,,
5.2128906250,83,53.0000000000,,,
5.2148437500,83,86.0000000000,,,
5.2167968750,83,93.0000000000,,,
5.2187500000,83,81.0000000000,,,
5.2207031250,83,53.0000000000,,,
5.2226562500,83,48.0000000000,,,
5.2246093750,83,92.0000000000,,,
5.2265625000,83,140.0000000000,,,
5.2285156250,83,136.0000000000,,,
5.2304687500,83,119.0000000000,,,
5.2324218750,83,117.0000000000,,,
5.2343750000,83,123.0000000000,,,
5.2363281250,83,133.0000000000,,,
5.2382812500,83,134.0000000000,,,
5.2402343750,83,123.0000000000,,,
5.2421875000,83,123.0000000000,,,
5.2441406250,83,132.0000000000,,,
5.2460937500,83,130.0000000000,,,
5.2480468750,83,129.0000000000,,,
5.2500000000,84,132.0000000000,,,
5.2519531250,84,141.0000000000,,,
5.2539062500,84,148.0000000000,,,
5.2558593750,84,138.0000000000,,,
5.2578125000,84,113.0000000000,,,
5.2597656250,84,84.0000000000,,,
5.2617187500,84,49.0000000000,,,
5.2636718750,84,-11.0000000000,,,
5.2656250000,84,-61.0000000000,,,
5.2675781250,84,-45.0000000000,,,
5.2695312500,84,32.0000000000,,,
5.2714843750,84,112.0000000000,,,
5.2734375000,84,165.0000000000,,,
5.2753906250,84,198.0000000000,,,
5.2773437500,84,201.0000000000,,,
5.2792968750,84,197.0000000000,,,
5.2812500000,84,232.0000000000,,,
5.2832031250,84,305.0000000000,,,
5.2851562500,84,353.0000000000,,,
5.2871093750,84,343.0000000000,,,
5.2890625000,84,327.0000000000,,,
5.2910156250,84,312.0000000000,,,
5.2929687500,84,297.0000000000,,,
5.2949218750,84,290.0000000000,,,
5.2968750000,84,292.0000000000,,,
5.2988281250,84,307.0000000000,,,
5.3007812500,84,316.0000000000,,,
5.3027343750,84,297.0000000000,,,
5.3046875000,84,217.0000000000,,,
5.3066406250,84,123.0000000000,,,
5.3085937500,84,93.0000000000,,,
5.3105468750,84,150.0000000000,,,
5.3125000000,85,193.0000000000,,,
5.3144531250,85,194.0000000000,,,
5.3164062500,85,166.0000000000,,,
5.3183593750,85,145.0000000000,,,
5.3203125000,85,137.0000000000,,,
5.3222656250,85,129.0000000000,,,
5.3242187500,85,130.0000000000,,,
5.3261718750,85,121.0000000000,,,
5.3281250000,85,91.0000000000,,,
5.3300781250,85,56.0000000000,,,
5.3320312500,85,55.0000000000,,,
5.3339843750,85,75.0000000000,,,
5.3359375000,85,74.0000000000,,,
5.3378906250,85,59.0000000000,,,
5.3398437500,85,53.0000000000,,,
5.3417968750,85,73.0000000000,,,
5.3437500000,85,84.0000000000,,,
5.3457031250,85,66.0000000000,,,
5.3476562500,85,45.0000000000,,,
5.3496093750,85,40.0000000000,,,
5.3515625000,85,27.0000000000,,,
5.3535156250,85,5.0000000000,,,
5.3554687500,85,1.0000000000,,,
5.3574218750,85,7.0000000000,,,
5.3593750000,85,-8.0000000000,,,
5.3613281250,85,-45.0000000000,,,
5.3632812500,85,-73.0000000000,,,
5.3652343750,85,-94.0000000000,,,
5.3671875000,85,-116.0000000000,,,
5.3691406250,85,-124.0000000000,,,
5.3710937500,85,-110.0000000000,,,
5.3730468750,85,-67.0000000000,,,
5.3750000000,86,-35.0000000000,,,
5.3769531250,86,-28.0000000000,,,
5.3789062500,86,-21.0000000000,,,
5.3808593750,86,-3.0000000000,,,
5.3828125000,86,-2.0000000000,,,
5.3847656250,86,-21.0000000000,,,
5.3867187500,86,-37.0000000000,,,
5.3886718750,86,-52.0000000000,,,
5.3906250000,86,-69.0000000000,,,
5.3925781250,86,-92.0000000000,,,
5.3945312500,86,-118.0000000000,,,
5.3964843750,86,-119.0000000000,,,
5.3984375000,86,-109.0000000000,,,
5.4003906250,86,-107.0000000000,,,
5.4023437500,86,-110.0000000000,,,
5.4042968750,86,-123.0000000000,,,
5.4062500000,86,-145.0000000000,,,
5.4082031250,86,-161.0000000000,,,
5.4101562500,86,-168.0000000000,,,
5.4121093750,86,-168.0000000000,,,
5.4140625000,86,-166.0000000000,,,
5.4160156250,86,-166.0000000000,,,
5.4179687500,86,-164.0000000000,,,
5.4199218750,86,-141.0000000000,,,
5.4218750000,86,-107.0000000000,,,
5.4238281250,86,-82.0000000000,,,
5.4257812500,86,-56.0000000000,,,
5.4277343750,86,-24.0000000000,,,
5.4296875000,86,12.0000000000,,,
5.4316406250,86,2.0000000000,,,
5.4335937500,86,-21.0000000000,,,
5.4355468750,86,-19.0000000000,,,
5.4375000000,87,-4.0000000000,,,
5.4394531250,87,4.0000000000,,,
5.4414062500,87,13.0000000000,,,
5.4433593750,87,36.0000000000,,,
5.4453125000,87,42.0000000000,,,
5.4472656250,87,36.0000000000,,,
5.4492187500,87,36.0000000000,,,
5.4511718750,87,41.0000000000,,,
5.4531250000,87,40.0000000000,,,
5.4550781250,87,36.0000000000,,,
5.4570312500,87,45.0000000000,,,
5.4589843750,87,52.0000000000,,,
5.4609375000,87,44.0000000000,,,
5.4628906250,87,44.0000000000,,,
5.4648437500,87,44.0000000000,,,
5.4667968750,87,42.0000000000,,,
5.4687500000,87,27.0000000000,,,
5.4707031250,87,19.0000000000,,,
5.4726562500,87,25.0000000000,,,
5.4746093750,87,32.0000000000,,,
5.4765625000,87,27.0000000000,,,
5.4785156250,87,16.0000000000,,,
5.4804687500,87,-6.0000000000,,,
5.4824218750,87,-18.0000000000,,,
5.4843750000,87,-4.0000000000,,,
5.4863281250,87,18.0000000000,,,
5.4882812500,87,36.0000000000,,,
5.4902343750,87,32.0000000000,,,
5.4921875000,87,6.0000000000,,,
5.4941406250,87,-1.0000000000,,,
5.4960937500,87,13.0000000000,,,
5.4980468750,87,24.0000000000,,,
5.5000000000,88,12.0000000000,,,
5.5019531250,88,-9.0000000000,,,
5.5039062500,88,-35.0000000000,,,
5.5058593750,88,-51.0000000000,,,
5.5078125000,88,-45.0000000000,,,
5.5097656250,88,-36.0000000000,,,
5.5117187500,88,-25.0000000000,,,
5.5136718750,88,-13.0000000000,,,
5.5156250000,88,-5.0000000000,,,
5.5175781250,88,-8.0000000000,,,
5.5195312500,88,-5.0000000000,,,
5.5214843750,88,0.0000000000,,,
5.5234375000,88,9.0000000000,,,
5.5253906250,88,13.0000000000,,,
5.5273437500,88,-2.0000000000,,,
5.5292968750,88,-20.0000000000,,,
5.5312500000,88,-13.0000000000,,,
5.5332031250,88,7.0000000000,,,
5.5351562500,88,7.0000000000,,,
5.5371093750,88,-6.0000000000,,,
5.5390625000,88,-10.0000000000,,,
5.5410156250,88,8.0000000000,,,
5.5429687500,88,23.0000000000,,,
5.5449218750,88,22.0000000000,,,
5.5468750000,88,32.0000000000,,,
5.5488281250,88,60.0000000000,,,
5.5507812500,88,96.0000000000,,,
5.5527343750,88,113.0000000000,,,
5.5546875000,88,118.0000000000,,,
5.5566406250,88,116.0000000000,,,
5.5585937500,88,102.0000000000,,,
5.5605468750,88,84.0000000000,,,
5.5625000000,89,66.0000000000,,,
5.5644531250,89,59.0000000000,,,
5.5664062500,89,48.0000000000,,,
5.5683593750,89,26.0000000000,,,
5.5703125000,89,28.0000000000,,,
5.5722656250,89,52.0000000000,,,
5.5742187500,89,69.0000000000,,,
5.5761718750,89,70.0000000000,,,
5.5781250000,89,80.0000000000,,,
5.5800781250,89,89.0000000000,,,
5.5820312500,89,89.0000000000,,,
5.5839843750,89,85.0000000000,,,
5.5859375000,89,57.0000000000,,,
5.5878906250,89,28.0000000000,,,
5.5898437500,89,34.0000000000,,,
5.5917968750,89,65.0000000000,,,
5.5937500000,89,86.0000000000,,,
5.5957031250,89,66.0000000000,,,
5.5976562500,89,28.0000000000,,,
5.5996093750,89,4.0000000000,,,
5.6015625000,89,-12.0000000000,,,
5.6035156250,89,-1.0000000000,33552,5.6035156250,0.0000000000
5.6054687500,89,8.0000000000,,,
5.6074218750,89,1.0000000000,,,
5.6093750000,89,-10.0000000000,,,
5.6113281250,89,-19.0000000000,,,
5.6132812500,89,-6.0000000000,,,
5.6152343750,89,44.0000000000,,,
5.6171875000,89,83.0000000000,,,
5.6191406250,89,74.0000000000,,,
5.6210937500,89,67.0000000000,,,
5.6230468750,89,72.0000000000,,,
5.6250000000,90,65.0000000000,,,
5.6269531250,90,35.0000000000,,,
5.6289062500,90,12.0000000000,,,
5.6308593750,90,24.0000000000,,,
5.6328125000,90,28.0000000000,,,
5.6347656250,90,17.0000000000,,,
5.6367187500,90,42.0000000000,,,
5.6386718750,90,112.0000000000,,,
5.6406250000,90,149.0000000000,,,
5.6425781250,90,121.0000000000,,,
5.6445312500,90,83.0000000000,,,
5.6464843750,90,90.0000000000,,,
5.6484375000,90,135.0000000000,,,
5.6503906250,90,152.0000000000,,,
5.6523437500,90,119.0000000000,,,
5.6542968750,90,53.0000000000,,,
5.6562500000,90,-13.0000000000,,,
5.6582031250,90,-43.0000000000,,,
5.6601562500,90,-10.0000000000,,,
5.6621093750,90,50.0000000000,,,
5.6640625000,90,77.0000000000,,,
5.6660156250,90,58.0000000000,,,
5.6679687500,90,49.0000000000,,,
5.6699218750,90,68.0000000000,,,
5.6718750000,90,101.0000000000,,,
5.6738281250,90,144.0000000000,,,
5.6757812500,90,152.0000000000,,,
5.6777343750,90,124.0000000000,,,
5.6796875000,90,81.0000000000,,,
5.6816406250,90,45.0000000000,,,
5.6835937500,90,39.0000000000,,,
5.6855468750,90,49.0000000000,,,
5.6875000000,91,44.0000000000,,,
5.6894531250,91,45.0000000000,,,
5.6914062500,91,61.0000000000,,,
5.6933593750,91,80.0000000000,,,
5.6953125000,91,107.0000000000,,,
5.6972656250,91,118.0000000000,,,
5.6992187500,91,86.0000000000,,,
5.7011718750,91,68.0000000000,,,
5.7031250000,91,89.0000000000,,,
5.7050781250,91,102.0000000000,,,
5.7070312500,91,73.0000000000,,,
5.7089843750,91,39.0000000000,,,
5.7109375000,91,10.0000000000,,,
5.7128906250,91,-4.0000000000,,,
5.7148437500,91,-12.0000000000,,,
5.7167968750,91,-22.0000000000,,,
5.7187500000,91,-5.0000000000,,,
5.7207031250,91,8.0000000000,,,
5.7226562500,91,3.0000000000,,,
5.7246093750,91,-17.0000000000,,,
5.7265625000,91,-56.0000000000,,,
5.7285156250,91,-83.0000000000,,,
5.7304687500,91,-42.0000000000,,,
5.7324218750,91,18.0000000000,,,
5.7343750000,91,35.0000000000,,,
5.7363281250,91,-6.0000000000,,,
5.7382812500,91,-54.0000000000,,,
5.7402343750,91,-68.0000000000,,,
5.7421875000,91,-69.0000000000,,,
5.7441406250,91,-74.0000000000,,,
5.7460937500,91,-83.0000000000,,,
5.7480468750,91,-87.0000000000,,,
5.7500000000,92,-88.0000000000,,,
5.7519531250,92,-83.0000000000,,,
5.7539062500,92,-76.0000000000,,,
5.7558593750,92,-56.0000000000,,,
5.7578125000,92,-34.0000000000,,,
5.7597656250,92,-34.0000000000,,,
5.7617187500,92,-35.0000000000,,,
5.7636718750,92,-35.0000000000,,,
5.7656250000,92,-44.0000000000,,,
5.7675781250,92,-54.0000000000,,,
5.7695312500,92,-61.0000000000,,,
5.7714843750,92,-57.0000000000,,,
5.7734375000,92,-29.0000000000,,,
5.7753906250,92,-4.0000000000,,,
5.7773437500,92,5.0000000000,,,
5.7792968750,92,5.0000000000,,,
5.7812500000,92,-1.0000000000,,,
5.7832031250,92,-2.0000000000,,,
5.7851562500,92,5.0000000000,,,
5.7871093750,92,12.0000000000,,,
5.7890625000,92,7.0000000000,,,
5.7910156250,92,-3.0000000000,,,
5.7929687500,92,-1.0000000000,,,
5.7949218750,92,-3.0000000000,,,
5.7968750000,92,-29.0000000000,,,
5.7988281250,92,-61.0000000000,,,
5.8007812500,92,-74.0000000000,,,
5.8027343750,92,-76.0000000000,,,
5.8046875000,92,-90.0000000000,,,
5.8066406250,92,-99.0000000000,,,
5.8085937500,92,-86.0000000000,,,
5.8105468750,92,-54.0000000000,,,
5.8125000000,93,-22.0000000000,,,
5.8144531250,93,-7.0000000000,,,
5.8164062500,93,-5.0000000000,,,
5.8183593750,93,5.0000000000,,,
5.8203125000,93,10.0000000000,,,
5.8222656250,93,-10.0000000000,,,
5.8242187500,93,-51.0000000000,,,
5.8261718750,93,-87.0000000000,,,
5.8281250000,93,-87.0000000000,,,
5.8300781250,93,-43.0000000000,,,
5.8320312500,93,4.0000000000,,,
5.8339843750,93,18.0000000000,,,
5.8359375000,93,8.0000000000,,,
5.8378906250,93,-1.0000000000,,,
5.8398437500,93,-2.0000000000,,,
5.8417968750,93,4.0000000000,,,
5.8437500000,93,6.0000000000,,,
5.8457031250,93,1.0000000000,,,
5.8476562500,93,-10.0000000000,,,
5.8496093750,93,-43.0000000000,,,
5.8515625000,93,-84.0000000000,,,
5.8535156250,93,-101.0000000000,,,
5.8554687500,93,-70.0000000000,,,
5.8574218750,93,-24.0000000000,,,
5.8593750000,93,-1.0000000000,,,
5.8613281250,93,3.0000000000,,,
5.8632812500,93,-8.0000000000,,,
5.8652343750,93,-19.0000000000,,,
5.8671875000,93,-18.0000000000,,,
5.8691406250,93,-3.0000000000,,,
5.8710937500,93,-2.0000000000,,,
5.8730468750,93,-35.0000000000,,,
5.8750000000,94,-60.0000000000,,,
5.8769531250,94,-60.0000000000,,,
5.8789062500,94,-53.0000000000,,,
5.8808593750,94,-57.0000000000,,,
5.8828125000,94,-72.0000000000,,,
5.8847656250,94,-90.0000000000,,,
5.8867187500,94,-91.0000000000,,,
5.8886718750,94,-70.0000000000,,,
5.8906250000,94,-57.0000000000,,,
5.8925781250,94,-52.0000000000,,,
5.8945312500,94,-42.0000000000,,,
5.8964843750,94,-40.0000000000,,,
5.8984375000,94,-40.0000000000,,,
5.9003906250,94,-40.0000000000,,,
5.9023437500,94,-39.0000000000,,,
5.9042968750,94,-42.0000000000,,,
5.9062500000,94,-67.0000000000,,,
5.9082031250,94,-113.0000000000,,,
5.9101562500,94,-156.0000000000,,,
5.9121093750,94,-180.0000000000,,,
5.9140625000,94,-193.0000000000,,,
5.9160156250,94,-189.0000000000,,,
5.9179687500,94,-185.0000000000,,,
5.9199218750,94,-190.0000000000,,,
5.9218750000,94,-198.0000000000,,,
5.9238281250,94,-211.0000000000,,,
5.9257812500,94,-195.0000000000,,,
5.9277343750,94,-161.0000000000,,,
5.9296875000,94,-137.0000000000,,,
5.9316406250,94,-116.0000000000,,,
5.9335937500,94,-91.0000000000,,,
5.9355468750,94,-85.0000000000,,,
5.9375000000,95,-84.0000000000,,,
5.9394531250,95,-59.0000000000,,,
5.9414062500,95,-17.0000000000,,,
5.9433593750,95,23.0000000000,,,
5.9453125000,95,25.0000000000,,,
5.9472656250,95,9.0000000000,,,
5.9492187500,95,8.0000000000,,,
5.9511718750,95,11.0000000000,,,
5.9531250000,95,17.0000000000,,,
5.9550781250,95,34.0000000000,,,
5.9570312500,95,57.0000000000,,,
5.9589843750,95,73.0000000000,,,
5.9609375000,95,74.0000000000,,,
5.9628906250,95,71.0000000000,,,
5.9648437500,95,87.0000000000,,,
5.9667968750,95,131.0000000000,,,
5.9687500000,95,165.0000000000,,,
5.9707031250,95,157.0000000000,,,
5.9726562500,95,128.0000000000,,,
5.9746093750,95,103.0000000000,,,
5.9765625000,95,92.0000000000,,,
5.9785156250,95,87.0000000000,,,
5.9804687500,95,74.0000000000,,,
5.9824218750,95,49.0000000000,,,
5.9843750000,95,49.0000000000,,,
5.9863281250,95,84.0000000000,,,
5.9882812500,95,119.0000000000,,,
5.9902343750,95,124.0000000000,,,
5.9921875000,95,121.0000000000,,,
5.9941406250,95,128.0000000000,,,
5.9960937500,95,134.0000000000,,,
5.9980468750,95,138.0000000000,,,
6.0000000000,96,119.0000000000,,,
6.0019531250,96,84.0000000000,,,
6.0039062500,96,81.0000000000,,,
6.0058593750,96,121.0000000000,,,
6.0078125000,96,197.0000000000,,,
6.0097656250,96,245.0000000000,,,
6.0117187500,96,241.0000000000,,,
6.0136718750,96,218.0000000000,,,
6.0156250000,96,212.0000000000,,,
6.0175781250,96,234.0000000000,,,
6.0195312500,96,247.0000000000,,,
6.0214843750,96,218.0000000000,,,
6.0234375000,96,145.0000000000,,,
6.0253906250,96,64.0000000000,,,
6.0273437500,96,36.0000000000,,,
6.0292968750,96,43.0000000000,,,
6.0312500000,96,36.0000000000,,,
6.0332031250,96,27.0000000000,,,
6.0351562500,96,42.0000000000,,,
6.0371093750,96,48.0000000000,,,
6.0390625000,96,27.0000000000,,,
6.0410156250,96,10.0000000000,,,
6.0429687500,96,3.0000000000,,,
6.0449218750,96,11.0000000000,,,
6.0468750000,96,7.0000000000,,,
6.0488281250,96,-20.0000000000,,,
6.0507812500,96,-37.0000000000,,,
6.0527343750,96,-38.0000000000,,,
6.0546875000,96,-34.0000000000,,,
6.0566406250,96,-24.0000000000,,,
6.0585937500,96,-12.0000000000,,,
6.0605468750,96,10.0000000000,,,
6.0625000000,97,56.0000000000,,,
6.0644531250,97,88.0000000000,,,
6.0664062500,97,108.0000000000,,,
6.0683593750,97,120.0000000000,,,
6.0703125000,97,103.0000000000,,,
6.0722656250,97,88.0000000000,,,
6.0742187500,97,83.0000000000,,,
6.0761718750,97,91.0000000000,,,
6.0781250000,97,130.0000000000,,,
6.0800781250,97,166.0000000000,,,
6.0820312500,97,189.0000000000,,,
6.0839843750,97,218.0000000000,,,
6.0859375000,97,258.0000000000,,,
6.0878906250,97,285.0000000000,,,
6.0898437500,97,295.0000000000,,,
6.0917968750,97,305.0000000000,,,
6.0937500000,97,310.0000000000,,,
6.0957031250,97,300.0000000000,,,
6.0976562500,97,283.0000000000,,,
6.0996093750,97,263.0000000000,,,
6.1015625000,97,259.0000000000,,,
6.1035156250,97,256.0000000000,,,
6.1054687500,97,244.0000000000,,,
6.1074218750,97,225.0000000000,,,
6.1093750000,97,181.0000000000,,,
6.1113281250,97,146.0000000000,,,
6.1132812500,97,172.0000000000,,,
6.1152343750,97,237.0000000000,,,
6.1171875000,97,266.0000000000,,,
6.1191406250,97,248.0000000000,,,
6.1210937500,97,216.0000000000,,,
6.1230468750,97,199.0000000000,,,
6.1250000000,98,231.0000000000,,,
6.1269531250,98,276.0000000000,,,
6.1289062500,98,263.0000000000,,,
6.1308593750,98,216.0000000000,,,
6.1328125000,98,179.0000000000,,,
6.1347656250,98,164.0000000000,,,
6.1367187500,98,150.0000000000,,,
6.1386718750,98,150.0000000000,,,
6.1406250000,98,173.0000000000,,,
6.1425781250,98,180.0000000000,,,
6.1445312500,98,165.0000000000,,,
6.1464843750,98,172.0000000000,,,
6.1484375000,98,180.0000000000,,,
6.1503906250,98,183.0000000000,,,
6.1523437500,98,195.0000000000,,,
6.1542968750,98,192.0000000000,,,
6.1562500000,98,165.0000000000,,,
6.1582031250,98,154.0000000000,,,
6.1601562500,98,166.0000000000,,,
6.1621093750,98,163.0000000000,,,
6.1640625000,98,150.0000000000,,,
6.1660156250,98,135.0000000000,,,
6.1679687500,98,113.0000000000,,,
6.1699218750,98,91.0000000000,,,
6.1718750000,98,100.0000000000,,,
6.1738281250,98,114.0000000000,,,
6.1757812500,98,103.0000000000,,,
6.1777343750,98,100.0000000000,,,
6.1796875000,98,88.0000000000,,,
6.1816406250,98,70.0000000000,,,
6.1835937500,98,66.0000000000,,,
6.1855468750,98,90.0000000000,,,
6.1875000000,99,113.0000000000,,,
6.1894531250,99,108.0000000000,,,
6.1914062500,99,109.0000000000,,,
6.1933593750,99,112.0000000000,,,
6.1953125000,99,91.0000000000,,,
6.1972656250,99,86.0000000000,,,
6.1992187500,99,97.0000000000,,,
6.2011718750,99,98.0000000000,,,
6.2031250000,99,91.0000000000,,,
6.2050781250,99,76.0000000000,,,
6.2070312500,99,68.0000000000,,,
6.2089843750,99,80.0000000000,,,
6.2109375000,99,90.0000000000,,,
6.2128906250,99,87.0000000000,,,
6.2148437500,99,73.0000000000,,,
6.2167968750,99,54.0000000000,,,
6.2187500000,99,37.0000000000,,,
6.2207031250,99,44.0000000000,,,
6.2226562500,99,52.0000000000,,,
6.2246093750,99,48.0000000000,,,
6.2265625000,99,33.0000000000,,,
6.2285156250,99,24.0000000000,,,
6.2304687500,99,52.0000000000,,,
6.2324218750,99,43.0000000000,,,
6.2343750000,99,19.0000000000,,,
6.2363281250,99,34.0000000000,,,
6.2382812500,99,33.0000000000,,,
6.2402343750,99,4.0000000000,,,
6.2421875000,99,-27.0000000000,,,
6.2441406250,99,-44.0000000000,,,
6.2460937500,99,-51.0000000000,,,
6.2480468750,99,-51.0000000000,,,
6.2500000000,100,-75.0000000000,,,
6.2519531250,100,-86.0000000000,,,
6.2539062500,100,-27.0000000000,,,
6.2558593750,100,66.0000000000,,,
6.2578125000,100,108.0000000000,,,
6.2597656250,100,88.0000000000,,,
6.2617187500,100,58.0000000000,,,
6.2636718750,100,89.0000000000,,,
6.2656250000,100,149.0000000000,,,
6.2675781250,100,182.0000000000,,,
6.2695312500,100,178.0000000000,,,
6.2714843750,100,180.0000000000,,,
6.2734375000,100,201.0000000000,,,
6.2753906250,100,152.0000000000,,,
6.2773437500,100,65.0000000000,,,
6.2792968750,100,92.0000000000,,,
6.2812500000,100,183.0000000000,,,
6.2832031250,100,236.0000000000,,,
6.2851562500,100,274.0000000000,,,
6.2871093750,100,304.0000000000,,,
6.2890625000,100,307.0000000000,,,
6.2910156250,100,336.0000000000,,,
6.2929687500,100,390.0000000000,,,
6.2949218750,100,428.0000000000,,,
6.2968750000,100,429.0000000000,,,
6.2988281250,100,401.0000000000,,,
6.3007812500,100,374.0000000000,,,
6.3027343750,100,357.0000000000,,,
6.3046875000,100,339.0000000000,,,
6.3066406250,100,355.0000000000,,,
6.3085937500,100,420.0000000000,,,
6.3105468750,100,444.0000000000,,,
6.3125000000,101,412.0000000000,,,
6.3144531250,101,379.0000000000,,,
6.3164062500,101,378.0000000000,,,
6.3183593750,101,361.0000000000,,,
6.3203125000,101,292.0000000000,,,
6.3222656250,101,208.0000000000,,,
6.3242187500,101,172.0000000000,,,
6.3261718750,101,193.0000000000,,,
6.3281250000,101,225.0000000000,,,
6.3300781250,101,215.0000000000,,,
6.3320312500,101,140.0000000000,,,
6.3339843750,101,54.0000000000,,,
6.3359375000,101,69.0000000000,,,
6.3378906250,101,139.0000000000,,,
6.3398437500,101,146.0000000000,,,
6.3417968750,101,119.0000000000,,,
6.3437500000,101,103.0000000000,,,
6.3457031250,101,10.0000000000,,,
6.3476562500,101,-62.0000000000,,,
6.3496093750,101,6.0000000000,,,
6.3515625000,101,96.0000000000,,,
6.3535156250,101,35.0000000000,,,
6.3554687500,101,-103.0000000000,,,
6.3574218750,101,-195.0000000000,,,
6.3593750000,101,-157.0000000000,,,
6.3613281250,101,-52.0000000000,,,
6.3632812500,101,-28.0000000000,,,
6.3652343750,101,-116.0000000000,,,
6.3671875000,101,-199.0000000000,,,
6.3691406250,101,-203.0000000000,,,
6.3710937500,101,-194.0000000000,,,
6.3730468750,101,-219.0000000000,,,
6.3750000000,102,-259.0000000000,,,
6.3769531250,102,-284.0000000000,,,
6.3789062500,102,-314.0000000000,,,
6.3808593750,102,-344.0000000000,,,
6.3828125000,102,-308.0000000000,,,
6.3847656250,102,-254.0000000000,,,
6.3867187500,102,-242.0000000000,,,
6.3886718750,102,-251.0000000000,,,
6.3906250000,102,-252.0000000000,,,
6.3925781250,102,-219.0000000000,,,
6.3945312500,102,-177.0000000000,,,
6.3964843750,102,-151.0000000000,,,
6.3984375000,102,-183.0000000000,,,
6.4003906250,102,-233.0000000000,,,
6.4023437500,102,-236.0000000000,,,
6.4042968750,102,-243.0000000000,,,
6.4062500000,102,-270.0000000000,,,
6.4082031250,102,-312.0000000000,,,
6.4101562500,102,-341.0000000000,,,
6.4121093750,102,-326.0000000000,,,
6.4140625000,102,-275.0000000000,,,
6.4160156250,102,-222.0000000000,,,
6.4179687500,102,-200.0000000000,,,
6.4199218750,102,-210.0000000000,,,
6.4218750000,102,-210.0000000000,,,
6.4238281250,102,-200.0000000000,,,
6.4257812500,102,-188.0000000000,,,
6.4277343750,102,-167.0000000000,,,
6.4296875000,102,-156.0000000000,,,
6.4316406250,102,-168.0000000000,,,
6.4335937500,102,-202.0000000000,,,
6.4355468750,102,-212.0000000000,,,
6.4375000000,103,-165.0000000000,,,
6.4394531250,103,-104.0000000000,,,
6.4414062500,103,-83.0000000000,,,
6.4433593750,103,-106.0000000000,,,
6.4453125000,103,-126.0000000000,,,
6.4472656250,103,-120.0000000000,,,
6.4492187500,103,-104.0000000000,,,
6.4511718750,103,-94.0000000000,,,
6.4531250000,103,-93.0000000000,,,
6.4550781250,103,-88.0000000000,,,
6.4570312500,103,-57.0000000000,,,
6.4589843750,103,-38.0000000000,,,
6.4609375000,103,-41.0000000000,,,
6.4628906250,103,-46.0000000000,,,
6.4648437500,103,-52.0000000000,,,
6.4667968750,103,-67.0000000000,,,
6.4687500000,103,-73.0000000000,,,
6.4707031250,103,-50.0000000000,,,
6.4726562500,103,-62.0000000000,,,
6.4746093750,103,-117.0000000000,,,
6.4765625000,103,-138.0000000000,,,
6.4785156250,103,-113.0000000000,,,
6.4804687500,103,-77.0000000000,,,
6.4824218750,103,-68.0000000000,,,
6.4843750000,103,-76.0000000000,,,
6.4863281250,103,-83.0000000000,,,
6.4882812500,103,-76.0000000000,,,
6.4902343750,103,-53.0000000000,,,
6.4921875000,103,-43.0000000000,,,
6.4941406250,103,-46.0000000000,,,
6.4960937500,103,-35.0000000000,,,
6.4980468750,103,-17.0000000000,,,
6.5000000000,104,-3.0000000000,,,
6.5019531250,104,9.0000000000,,,
6.5039062500,104,23.0000000000,,,
6.5058593750,104,43.0000000000,,,
6.5078125000,104,59.0000000000,,,
6.5097656250,104,67.0000000000,,,
6.5117187500,104,74.0000000000,,,
6.5136718750,104,90.0000000000,,,
6.5156250000,104,60.0000000000,,,
6.5175781250,104,-9.0000000000,,,
6.5195312500,104,-18.0000000000,,,
6.5214843750,104,7.0000000000,,,
6.5234375000,104,27.0000000000,,,
6.5253906250,104,25.0000000000,,,
6.5273437500,104,-17.0000000000,,,
6.5292968750,104,-39.0000000000,,,
6.5312500000,104,-28.0000000000,,,
6.5332031250,104,-19.0000000000,,,
6.5351562500,104,-6.0000000000,,,
6.5371093750,104,-4.0000000000,,,
6.5390625000,104,-9.0000000000,,,
6.5410156250,104,1.0000000000,,,
6.5429687500,104,7.0000000000,,,
6.5449218750,104,-2.0000000000,,,
6.5468750000,104,3.0000000000,,,
6.5488281250,104,38.0000000000,,,
6.5507812500,104,82.0000000000,,,
6.5527343750,104,104.0000000000,,,
6.5546875000,104,101.0000000000,,,
6.5566406250,104,97.0000000000,,,
6.5585937500,104,122.0000000000,,,
6.5605468750,104,149.0000000000,,,
6.5625000000,105,138.0000000000,,,
6.5644531250,105,119.0000000000,,,
6.5664062500,105,102.0000000000,,,
6.5683593750,105,107.0000000000,,,
6.5703125000,105,123.0000000000,,,
6.5722656250,105,124.0000000000,,,
6.5742187500,105,83.0000000000,,,
6.5761718750,105,42.0000000000,,,
6.5781250000,105,35.0000000000,,,
6.5800781250,105,55.0000000000,,,
6.5820312500,105,106.0000000000,,,
6.5839843750,105,136.0000000000,,,
6.5859375000,105,104.0000000000,,,
6.5878906250,105,53.0000000000,,,
6.5898437500,105,36.0000000000,,,
6.5917968750,105,51.0000000000,,,
6.5937500000,105,71.0000000000,,,
6.5957031250,105,88.0000000000,,,
6.5976562500,105,100.0000000000,,,
6.5996093750,105,97.0000000000,,,
6.6015625000,105,81.0000000000,,,
6.6035156250,105,60.0000000000,,,
6.6054687500,105,59.0000000000,,,
6.6074218750,105,75.0000000000,,,
6.6093750000,105,72.0000000000,,,
6.6113281250,105,41.0000000000,,,
6.6132812500,105,24.0000000000,,,
6.6152343750,105,28.0000000000,,,
6.6171875000,105,57.0000000000,,,
6.6191406250,105,74.0000000000,,,
6.6210937500,105,75.0000000000,,,
6.6230468750,105,64.0000000000,,,
6.6250000000,106,55.0000000000,,,
6.6269531250,106,50.0000000000,,,
6.6289062500,106,38.0000000000,,,
6.6308593750,106,0.0000000000,,,
6.6328125000,106,-40.0000000000,,,
6.6347656250,106,-68.0000000000,,,
6.6367187500,106,-69.0000000000,,,
6.6386718750,106,-61.0000000000,,,
6.6406250000,106,-58.0000000000,,,
6.6425781250,106,-67.0000000000,,,
6.6445312500,106,-58.0000000000,,,
6.6464843750,106,-40.0000000000,,,
6.6484375000,106,-12.0000000000,,,
6.6503906250,106,16.0000000000,,,
6.6523437500,106,18.0000000000,,,
6.6542968750,106,6.0000000000,,,
6.6562500000,106,-26.0000000000,,,
6.6582031250,106,-65.0000000000,,,
6.6601562500,106,-72.0000000000,,,
6.6621093750,106,-49.0000000000,,,
6.6640625000,106,-2.0000000000,,,
6.6660156250,106,38.0000000000,,,
6.6679687500,106,18.0000000000,,,
6.6699218750,106,-44.0000000000,,,
6.6718750000,106,-68.0000000000,,,
6.6738281250,106,-34.0000000000,,,
6.6757812500,106,-5.0000000000,,,
6.6777343750,106,-26.0000000000,,,
6.6796875000,106,-91.0000000000,,,
6.6816406250,106,-180.0000000000,,,
6.6835937500,106,-235.0000000000,,,
6.6855468750,106,-234.0000000000,,,
6.6875000000,107,-214.0000000000,,,
6.6894531250,107,-220.0000000000,,,
6.6914062500,107,-254.0000000000,,,
6.6933593750,107,-269.0000000000,,,
6.6953125000,107,-253.0000000000,,,
6.6972656250,107,-234.0000000000,,,
6.6992187500,107,-237.0000000000,,,
6.7011718750,107,-261.0000000000,,,
6.7031250000,107,-268.0000000000,,,
6.7050781250,107,-232.0000000000,,,
6.7070312500,107,-188.0000000000,,,
6.7089843750,107,-151.0000000000,,,
6.7109375000,107,-129.0000000000,,,
6.7128906250,107,-130.0000000000,,,
6.7148437500,107,-133.0000000000,,,
6.7167968750,107,-101.0000000000,,,
6.7187500000,107,-42.0000000000,,,
6.7207031250,107,5.0000000000,,,
6.7226562500,107,33.0000000000,,,
6.7246093750,107,41.0000000000,,,
6.7265625000,107,51.0000000000,,,
6.7285156250,107,83.0000000000,,,
6.7304687500,107,119.0000000000,,,
6.7324218750,107,128.0000000000,,,
6.7343750000,107,120.0000000000,,,
6.7363281250,107,107.0000000000,,,
6.7382812500,107,115.0000000000,,,
6.7402343750,107,125.0000000000,,,
6.7421875000,107,117.0000000000,,,
6.7441406250,107,122.0000000000,,,
6.7460937500,107,172.0000000000,,,
6.7480468750,107,215.0000000000,,,
6.7500000000,108,225.0000000000,,,
6.7519531250,108,215.0000000000,,,
6.7539062500,108,214.0000000000,,,
6.7558593750,108,200.0000000000,,,
6.7578125000,108,167.0000000000,,,
6.7597656250,108,156.0000000000,,,
6.7617187500,108,140.0000000000,,,
6.7636718750,108,86.0000000000,,,
6.7656250000,108,52.0000000000,,,
6.7675781250,108,70.0000000000,,,
6.7695312500,108,118.0000000000,,,
6.7714843750,108,168.0000000000,,,
6.7734375000,108,185.0000000000,,,
6.7753906250,108,157.0000000000,,,
6.7773437500,108,124.0000000000,,,
6.7792968750,108,108.0000000000,,,
6.7812500000,108,133.0000000000,,,
6.7832031250,108,166.0000000000,,,
6.7851562500,108,180.0000000000,,,
6.7871093750,108,168.0000000000,,,
6.7890625000,108,154.0000000000,,,
6.7910156250,108,136.0000000000,,,
6.7929687500,108,114.0000000000,,,
6.7949218750,108,92.0000000000,,,
6.7968750000,108,104.0000000000,,,
6.7988281250,108,137.0000000000,,,
6.8007812500,108,161.0000000000,,,
6.8027343750,108,156.0000000000,,,
6.8046875000,108,153.0000000000,,,
6.8066406250,108,150.0000000000,,,
6.8085937500,108,136.0000000000,,,
6.8105468750,108,135.0000000000,,,
6.8125000000,109,138.0000000000,,,
6.8144531250,109,124.0000000000,,,
6.8164062500,109,90.0000000000,,,
6.8183593750,109,54.0000000000,,,
6.8203125000,109,18.0000000000,,,
6.8222656250,109,20.0000000000,,,
6.8242187500,109,56.0000000000,,,
6.8261718750,109,88.0000000000,,,
6.8281250000,109,84.0000000000,,,
6.8300781250,109,80.0000000000,,,
6.8320312500,109,99.0000000000,,,
6.8339843750,109,101.0000000000,,,
6.8359375000,109,56.0000000000,,,
6.8378906250,109,18.0000000000,,,
6.8398437500,109,40.0000000000,,,
6.8417968750,109,93.0000000000,,,
6.8437500000,109,136.0000000000,,,
6.8457031250,109,151.0000000000,,,
6.8476562500,109,144.0000000000,,,
6.8496093750,109,122.0000000000,,,
6.8515625000,109,96.0000000000,,,
6.8535156250,109,67.0000000000,,,
6.8554687500,109,52.0000000000,,,
6.8574218750,109,50.0000000000,,,
6.8593750000,109,68.0000000000,,,
6.8613281250,109,88.0000000000,,,
6.8632812500,109,101.0000000000,,,
6.8652343750,109,105.0000000000,,,
6.8671875000,109,117.0000000000,,,
6.8691406250,109,132.0000000000,,,
6.8710937500,109,131.0000000000,,,
6.8730468750,109,116.0000000000,,,
6.8750000000,110,100.0000000000,,,
6.8769531250,110,100.0000000000,,,
6.8789062500,110,87.0000000000,,,
6.8808593750,110,69.0000000000,,,
6.8828125000,110,68.0000000000,,,
6.8847656250,110,86.0000000000,,,
6.8867187500,110,124.0000000000,,,
6.8886718750,110,161.0000000000,,,
6.8906250000,110,156.0000000000,,,
6.8925781250,110,124.0000000000,,,
6.8945312500,110,107.0000000000,,,
6.8964843750,110,105.0000000000,,,
6.8984375000,110,90.0000000000,,,
6.9003906250,110,60.0000000000,,,
6.9023437500,110,40.0000000000,,,
6.9042968750,110,27.0000000000,,,
6.9062500000,110,26.0000000000,,,
6.9082031250,110,32.0000000000,,,
6.9101562500,110,43.0000000000,,,
6.9121093750,110,43.0000000000,,,
6.9140625000,110,28.0000000000,,,
6.9160156250,110,19.0000000000,,,
6.9179687500,110,-11.0000000000,,,
6.9199218750,110,-56.0000000000,,,
6.9218750000,110,-74.0000000000,,,
6.9238281250,110,-73.0000000000,,,
6.9257812500,110,-72.0000000000,,,
6.9277343750,110,-49.0000000000,,,
6.9296875000,110,-14.0000000000,,,
6.9316406250,110,25.0000000000,,,
6.9335937500,110,67.0000000000,,,
6.9355468750,110,84.0000000000,,,
6.9375000000,111,66.0000000000,,,
6.9394531250,111,28.0000000000,,,
6.9414062500,111,-1.0000000000,,,
6.9433593750,111,-12.0000000000,,,
6.9453125000,111,-12.0000000000,,,
6.9472656250,111,1.0000000000,,,
6.9492187500,111,6.0000000000,,,
6.9511718750,111,3.0000000000,,,
6.9531250000,111,21.0000000000,,,
